   Elapsed time	  ECG I	iltered
      (seconds)	   (mV)	   (mV)
          0.000	  0.045	 -0.220
          0.002	  0.105	 -0.170
          0.004	  0.080	 -0.135
          0.006	  0.155	 -0.105
          0.008	  0.150	 -0.090
          0.010	  0.210	 -0.085
          0.012	  0.235	 -0.095
          0.014	  0.200	 -0.110
          0.016	  0.135	 -0.125
          0.018	  0.145	 -0.140
          0.020	  0.065	 -0.150
          0.022	  0.030	 -0.150
          0.024	  0.060	 -0.140
          0.026	  0.145	 -0.130
          0.028	  0.150	 -0.125
          0.030	  0.245	 -0.120
          0.032	  0.200	 -0.120
          0.034	  0.130	 -0.130
          0.036	  0.125	 -0.140
          0.038	  0.140	 -0.155
          0.040	  0.065	 -0.165
          0.042	  0.030	 -0.170
          0.044	  0.050	 -0.160
          0.046	  0.075	 -0.145
          0.048	  0.110	 -0.110
          0.050	  0.305	 -0.060
          0.052	  0.430	  0.000
          0.054	  0.440	  0.070
          0.056	  0.455	  0.160
          0.058	  0.490	  0.255
          0.060	  0.510	  0.355
          0.062	  0.610	  0.460
          0.064	  0.840	  0.555
          0.066	  1.000	  0.640
          0.068	  1.070	  0.705
          0.070	  1.155	  0.735
          0.072	  1.075	  0.725
          0.074	  0.995	  0.680
          0.076	  0.845	  0.600
          0.078	  0.735	  0.490
          0.080	  0.505	  0.360
          0.082	  0.375	  0.230
          0.084	  0.295	  0.105
          0.086	  0.250	 -0.005
          0.088	  0.165	 -0.085
          0.090	  0.195	 -0.140
          0.092	  0.180	 -0.165
          0.094	  0.150	 -0.170
          0.096	  0.140	 -0.165
          0.098	  0.070	 -0.145
          0.100	  0.070	 -0.130
          0.102	  0.065	 -0.115
          0.104	  0.120	 -0.100
          0.106	  0.175	 -0.095
          0.108	  0.240	 -0.090
          0.110	  0.320	 -0.090
          0.112	  0.285	 -0.090
          0.114	  0.225	 -0.090
          0.116	  0.195	 -0.090
          0.118	  0.080	 -0.090
          0.120	  0.055	 -0.090
          0.122	  0.120	 -0.095
          0.124	  0.125	 -0.095
          0.126	  0.220	 -0.100
          0.128	  0.280	 -0.110
          0.130	  0.235	 -0.110
          0.132	  0.205	 -0.115
          0.134	  0.165	 -0.115
          0.136	  0.170	 -0.110
          0.138	  0.090	 -0.105
          0.140	  0.090	 -0.100
          0.142	  0.115	 -0.090
          0.144	  0.180	 -0.085
          0.146	  0.245	 -0.080
          0.148	  0.280	 -0.080
          0.150	  0.245	 -0.080
          0.152	  0.280	 -0.085
          0.154	  0.240	 -0.090
          0.156	  0.150	 -0.100
          0.158	  0.050	 -0.105
          0.160	 -0.030	 -0.115
          0.162	  0.025	 -0.115
          0.164	  0.190	 -0.115
          0.166	  0.235	 -0.105
          0.168	  0.320	 -0.090
          0.170	  0.335	 -0.075
          0.172	  0.315	 -0.060
          0.174	  0.250	 -0.040
          0.176	  0.210	 -0.025
          0.178	  0.135	 -0.020
          0.180	  0.165	 -0.015
          0.182	  0.180	 -0.015
          0.184	  0.205	 -0.020
          0.186	  0.235	 -0.030
          0.188	  0.305	 -0.035
          0.190	  0.315	 -0.040
          0.192	  0.335	 -0.040
          0.194	  0.255	 -0.040
          0.196	  0.230	 -0.035
          0.198	  0.135	 -0.030
          0.200	  0.175	 -0.025
          0.202	  0.170	 -0.020
          0.204	  0.230	 -0.020
          0.206	  0.225	 -0.020
          0.208	  0.315	 -0.015
          0.210	  0.340	 -0.015
          0.212	  0.325	 -0.010
          0.214	  0.270	 -0.005
          0.216	  0.270	  0.005
          0.218	  0.190	  0.015
          0.220	  0.220	  0.020
          0.222	  0.220	  0.030
          0.224	  0.285	  0.035
          0.226	  0.300	  0.035
          0.228	  0.385	  0.035
          0.230	  0.365	  0.035
          0.232	  0.395	  0.030
          0.234	  0.340	  0.030
          0.236	  0.300	  0.035
          0.238	  0.200	  0.035
          0.240	  0.170	  0.045
          0.242	  0.235	  0.055
          0.244	  0.280	  0.065
          0.246	  0.350	  0.075
          0.248	  0.410	  0.085
          0.250	  0.505	  0.100
          0.252	  0.510	  0.115
          0.254	  0.475	  0.125
          0.256	  0.405	  0.140
          0.258	  0.265	  0.155
          0.260	  0.295	  0.170
          0.262	  0.355	  0.180
          0.264	  0.450	  0.190
          0.266	  0.445	  0.190
          0.268	  0.590	  0.195
          0.270	  0.600	  0.190
          0.272	  0.515	  0.190
          0.274	  0.445	  0.185
          0.276	  0.380	  0.185
          0.278	  0.350	  0.185
          0.280	  0.325	  0.190
          0.282	  0.385	  0.195
          0.284	  0.465	  0.205
          0.286	  0.530	  0.220
          0.288	  0.575	  0.230
          0.290	  0.635	  0.240
          0.292	  0.585	  0.250
          0.294	  0.485	  0.255
          0.296	  0.430	  0.255
          0.298	  0.360	  0.255
          0.300	  0.440	  0.255
          0.302	  0.485	  0.255
          0.304	  0.495	  0.255
          0.306	  0.500	  0.250
          0.308	  0.610	  0.250
          0.310	  0.645	  0.250
          0.312	  0.570	  0.245
          0.314	  0.480	  0.240
          0.316	  0.450	  0.230
          0.318	  0.340	  0.215
          0.320	  0.325	  0.200
          0.322	  0.335	  0.180
          0.324	  0.440	  0.160
          0.326	  0.400	  0.145
          0.328	  0.445	  0.130
          0.330	  0.490	  0.120
          0.332	  0.435	  0.110
          0.334	  0.350	  0.100
          0.336	  0.330	  0.095
          0.338	  0.195	  0.080
          0.340	  0.200	  0.065
          0.342	  0.205	  0.045
          0.344	  0.320	  0.025
          0.346	  0.270	  0.005
          0.348	  0.320	 -0.015
          0.350	  0.340	 -0.030
          0.352	  0.290	 -0.035
          0.354	  0.240	 -0.035
          0.356	  0.100	 -0.030
          0.358	  0.140	 -0.025
          0.360	  0.125	 -0.015
          0.362	  0.200	 -0.010
          0.364	  0.240	 -0.010
          0.366	  0.265	 -0.020
          0.368	  0.315	 -0.030
          0.370	  0.275	 -0.045
          0.372	  0.215	 -0.060
          0.374	  0.130	 -0.075
          0.376	  0.095	 -0.085
          0.378	  0.060	 -0.090
          0.380	  0.005	 -0.090
          0.382	  0.110	 -0.090
          0.384	  0.140	 -0.090
          0.386	  0.180	 -0.090
          0.388	  0.250	 -0.095
          0.390	  0.240	 -0.100
          0.392	  0.155	 -0.110
          0.394	  0.080	 -0.115
          0.396	  0.050	 -0.120
          0.398	  0.025	 -0.125
          0.400	  0.005	 -0.125
          0.402	  0.080	 -0.120
          0.404	  0.140	 -0.110
          0.406	  0.165	 -0.105
          0.408	  0.140	 -0.100
          0.410	  0.250	 -0.100
          0.412	  0.240	 -0.100
          0.414	  0.105	 -0.105
          0.416	  0.085	 -0.110
          0.418	 -0.010	 -0.115
          0.420	  0.000	 -0.115
          0.422	  0.095	 -0.115
          0.424	  0.100	 -0.110
          0.426	  0.210	 -0.095
          0.428	  0.260	 -0.085
          0.430	  0.240	 -0.075
          0.432	  0.220	 -0.065
          0.434	  0.185	 -0.060
          0.436	  0.065	 -0.060
          0.438	  0.025	 -0.070
          0.440	  0.020	 -0.080
          0.442	  0.065	 -0.095
          0.444	  0.135	 -0.110
          0.446	  0.230	 -0.115
          0.448	  0.200	 -0.120
          0.450	  0.200	 -0.120
          0.452	  0.160	 -0.110
          0.454	  0.115	 -0.100
          0.456	  0.045	 -0.085
          0.458	  0.070	 -0.070
          0.460	  0.050	 -0.060
          0.462	  0.090	 -0.050
          0.464	  0.155	 -0.050
          0.466	  0.195	 -0.050
          0.468	  0.255	 -0.050
          0.470	  0.265	 -0.055
          0.472	  0.210	 -0.060
          0.474	  0.170	 -0.060
          0.476	  0.055	 -0.055
          0.478	  0.050	 -0.050
          0.480	  0.055	 -0.045
          0.482	  0.150	 -0.045
          0.484	  0.205	 -0.040
          0.486	  0.265	 -0.040
          0.488	  0.250	 -0.040
          0.490	  0.175	 -0.040
          0.492	  0.205	 -0.040
          0.494	  0.135	 -0.040
          0.496	  0.105	 -0.035
          0.498	  0.080	 -0.030
          0.500	  0.080	 -0.025
          0.502	  0.135	 -0.020
          0.504	  0.220	 -0.015
          0.506	  0.255	 -0.015
          0.508	  0.265	 -0.020
          0.510	  0.230	 -0.030
          0.512	  0.185	 -0.040
          0.514	  0.150	 -0.050
          0.516	  0.050	 -0.055
          0.518	  0.005	 -0.055
          0.520	  0.030	 -0.055
          0.522	  0.140	 -0.045
          0.524	  0.195	 -0.035
          0.526	  0.260	 -0.030
          0.528	  0.250	 -0.025
          0.530	  0.265	 -0.020
          0.532	  0.180	 -0.025
          0.534	  0.160	 -0.035
          0.536	  0.010	 -0.040
          0.538	  0.030	 -0.050
          0.540	  0.030	 -0.050
          0.542	  0.085	 -0.050
          0.544	  0.165	 -0.045
          0.546	  0.350	 -0.035
          0.548	  0.300	 -0.025
          0.550	  0.230	 -0.020
          0.552	  0.100	 -0.015
          0.554	  0.080	 -0.015
          0.556	 -0.005	 -0.020
          0.558	  0.070	 -0.025
          0.560	  0.115	 -0.030
          0.562	  0.120	 -0.035
          0.564	  0.195	 -0.035
          0.566	  0.270	 -0.035
          0.568	  0.290	 -0.030
          0.570	  0.205	 -0.030
          0.572	  0.150	 -0.030
          0.574	  0.130	 -0.035
          0.576	 -0.030	 -0.040
          0.578	 -0.040	 -0.050
          0.580	  0.080	 -0.060
          0.582	  0.170	 -0.065
          0.584	  0.140	 -0.070
          0.586	  0.200	 -0.060
          0.588	  0.175	 -0.050
          0.590	  0.215	 -0.035
          0.592	  0.195	 -0.015
          0.594	  0.090	 -0.005
          0.596	  0.010	  0.000
          0.598	 -0.010	 -0.005
          0.600	  0.105	 -0.015
          0.602	  0.195	 -0.035
          0.604	  0.120	 -0.055
          0.606	  0.180	 -0.070
          0.608	  0.240	 -0.075
          0.610	  0.195	 -0.075
          0.612	  0.130	 -0.060
          0.614	  0.010	 -0.045
          0.616	 -0.010	 -0.025
          0.618	  0.040	 -0.005
          0.620	  0.075	  0.005
          0.622	  0.170	  0.010
          0.624	  0.210	  0.005
          0.626	  0.265	 -0.005
          0.628	  0.225	 -0.020
          0.630	  0.090	 -0.030
          0.632	  0.115	 -0.035
          0.634	  0.100	 -0.035
          0.636	  0.015	 -0.030
          0.638	  0.045	 -0.020
          0.640	  0.040	 -0.010
          0.642	  0.125	  0.000
          0.644	  0.175	  0.010
          0.646	  0.275	  0.015
          0.648	  0.265	  0.015
          0.650	  0.275	  0.020
          0.652	  0.140	  0.020
          0.654	  0.050	  0.025
          0.656	 -0.010	  0.025
          0.658	  0.045	  0.025
          0.660	  0.165	  0.030
          0.662	  0.165	  0.025
          0.664	  0.200	  0.020
          0.666	  0.230	  0.015
          0.668	  0.240	  0.005
          0.670	  0.205	 -0.005
          0.672	  0.145	 -0.010
          0.674	  0.105	 -0.010
          0.676	 -0.005	 -0.005
          0.678	  0.020	  0.005
          0.680	  0.005	  0.020
          0.682	  0.180	  0.035
          0.684	  0.285	  0.050
          0.686	  0.305	  0.065
          0.688	  0.265	  0.075
          0.690	  0.260	  0.085
          0.692	  0.200	  0.095
          0.694	  0.130	  0.095
          0.696	  0.145	  0.100
          0.698	  0.070	  0.100
          0.700	  0.180	  0.095
          0.702	  0.215	  0.095
          0.704	  0.290	  0.090
          0.706	  0.295	  0.080
          0.708	  0.265	  0.070
          0.710	  0.190	  0.060
          0.712	  0.165	  0.050
          0.714	  0.035	  0.040
          0.716	  0.035	  0.030
          0.718	  0.075	  0.025
          0.720	  0.140	  0.020
          0.722	  0.125	  0.020
          0.724	  0.230	  0.015
          0.726	  0.195	  0.015
          0.728	  0.200	  0.010
          0.730	  0.170	  0.010
          0.732	  0.095	  0.010
          0.734	 -0.040	  0.005
          0.736	 -0.005	  0.005
          0.738	  0.050	  0.005
          0.740	  0.065	  0.000
          0.742	  0.110	  0.000
          0.744	  0.180	  0.000
          0.746	  0.200	  0.000
          0.748	  0.190	  0.000
          0.750	  0.150	  0.005
          0.752	  0.080	  0.005
          0.754	 -0.010	  0.010
          0.756	 -0.010	  0.015
          0.758	  0.000	  0.020
          0.760	  0.105	  0.025
          0.762	  0.115	  0.030
          0.764	  0.235	  0.030
          0.766	  0.240	  0.030
          0.768	  0.190	  0.025
          0.770	  0.100	  0.020
          0.772	  0.000	  0.020
          0.774	 -0.030	  0.020
          0.776	  0.050	  0.020
          0.778	  0.100	  0.020
          0.780	  0.115	  0.025
          0.782	  0.095	  0.030
          0.784	  0.210	  0.035
          0.786	  0.190	  0.035
          0.788	  0.170	  0.030
          0.790	  0.105	  0.030
          0.792	  0.090	  0.025
          0.794	  0.025	  0.020
          0.796	 -0.040	  0.020
          0.798	  0.015	  0.025
          0.800	  0.060	  0.030
          0.802	  0.065	  0.040
          0.804	  0.280	  0.050
          0.806	  0.270	  0.055
          0.808	  0.175	  0.055
          0.810	  0.105	  0.050
          0.812	  0.020	  0.035
          0.814	 -0.060	  0.020
          0.816	 -0.075	  0.010
          0.818	 -0.020	  0.000
          0.820	  0.130	  0.000
          0.822	  0.115	  0.015
          0.824	  0.225	  0.040
          0.826	  0.240	  0.080
          0.828	  0.250	  0.130
          0.830	  0.290	  0.185
          0.832	  0.285	  0.255
          0.834	  0.255	  0.330
          0.836	  0.400	  0.410
          0.838	  0.475	  0.495
          0.840	  0.625	  0.590
          0.842	  0.790	  0.685
          0.844	  1.025	  0.780
          0.846	  1.095	  0.860
          0.848	  1.070	  0.920
          0.850	  1.080	  0.945
          0.852	  0.945	  0.935
          0.854	  0.790	  0.885
          0.856	  0.730	  0.795
          0.858	  0.665	  0.670
          0.860	  0.575	  0.530
          0.862	  0.365	  0.380
          0.864	  0.360	  0.250
          0.866	  0.240	  0.135
          0.868	  0.135	  0.060
          0.870	  0.015	  0.015
          0.872	  0.020	  0.000
          0.874	 -0.025	  0.015
          0.876	 -0.060	  0.040
          0.878	  0.015	  0.075
          0.880	  0.160	  0.105
          0.882	  0.250	  0.130
          0.884	  0.330	  0.140
          0.886	  0.345	  0.140
          0.888	  0.255	  0.135
          0.890	  0.210	  0.130
          0.892	  0.020	  0.120
          0.894	 -0.100	  0.110
          0.896	  0.030	  0.105
          0.898	  0.125	  0.105
          0.900	  0.165	  0.105
          0.902	  0.100	  0.105
          0.904	  0.275	  0.105
          0.906	  0.295	  0.110
          0.908	  0.245	  0.110
          0.910	  0.150	  0.115
          0.912	  0.095	  0.120
          0.914	  0.030	  0.120
          0.916	 -0.015	  0.120
          0.918	  0.075	  0.125
          0.920	  0.125	  0.125
          0.922	  0.200	  0.125
          0.924	  0.225	  0.125
          0.926	  0.175	  0.125
          0.928	  0.240	  0.130
          0.930	  0.200	  0.135
          0.932	  0.150	  0.140
          0.934	  0.045	  0.145
          0.936	  0.070	  0.150
          0.938	  0.065	  0.155
          0.940	  0.165	  0.155
          0.942	  0.255	  0.155
          0.944	  0.255	  0.155
          0.946	  0.225	  0.155
          0.948	  0.230	  0.155
          0.950	  0.185	  0.160
          0.952	  0.100	  0.165
          0.954	  0.030	  0.175
          0.956	  0.110	  0.180
          0.958	  0.250	  0.190
          0.960	  0.190	  0.190
          0.962	  0.165	  0.195
          0.964	  0.260	  0.190
          0.966	  0.270	  0.190
          0.968	  0.275	  0.185
          0.970	  0.170	  0.185
          0.972	  0.100	  0.185
          0.974	  0.125	  0.195
          0.976	  0.135	  0.205
          0.978	  0.140	  0.215
          0.980	  0.170	  0.230
          0.982	  0.325	  0.245
          0.984	  0.355	  0.255
          0.986	  0.305	  0.260
          0.988	  0.270	  0.260
          0.990	  0.215	  0.260
          0.992	  0.190	  0.255
          0.994	  0.150	  0.250
          0.996	  0.145	  0.240
          0.998	  0.145	  0.235
          1.000	  0.230	  0.235
          1.002	  0.275	  0.230
          1.004	  0.320	  0.235
          1.006	  0.290	  0.245
          1.008	  0.310	  0.255
          1.010	  0.285	  0.270
          1.012	  0.175	  0.285
          1.014	  0.200	  0.295
          1.016	  0.180	  0.310
          1.018	  0.240	  0.320
          1.020	  0.340	  0.325
          1.022	  0.445	  0.325
          1.024	  0.400	  0.325
          1.026	  0.365	  0.325
          1.028	  0.305	  0.325
          1.030	  0.240	  0.330
          1.032	  0.185	  0.340
          1.034	  0.245	  0.355
          1.036	  0.270	  0.370
          1.038	  0.385	  0.385
          1.040	  0.425	  0.405
          1.042	  0.490	  0.420
          1.044	  0.475	  0.430
          1.046	  0.480	  0.435
          1.048	  0.450	  0.440
          1.050	  0.350	  0.440
          1.052	  0.305	  0.440
          1.054	  0.370	  0.440
          1.056	  0.345	  0.440
          1.058	  0.405	  0.445
          1.060	  0.400	  0.445
          1.062	  0.495	  0.450
          1.064	  0.515	  0.455
          1.066	  0.560	  0.460
          1.068	  0.445	  0.460
          1.070	  0.410	  0.460
          1.072	  0.370	  0.455
          1.074	  0.300	  0.450
          1.076	  0.295	  0.440
          1.078	  0.350	  0.425
          1.080	  0.375	  0.410
          1.082	  0.430	  0.390
          1.084	  0.420	  0.375
          1.086	  0.370	  0.355
          1.088	  0.310	  0.335
          1.090	  0.270	  0.320
          1.092	  0.185	  0.300
          1.094	  0.185	  0.285
          1.096	  0.080	  0.265
          1.098	  0.175	  0.245
          1.100	  0.165	  0.220
          1.102	  0.270	  0.195
          1.104	  0.240	  0.170
          1.106	  0.165	  0.145
          1.108	  0.045	  0.120
          1.110	 -0.040	  0.105
          1.112	 -0.070	  0.090
          1.114	 -0.035	  0.080
          1.116	 -0.025	  0.070
          1.118	 -0.025	  0.060
          1.120	  0.010	  0.050
          1.122	  0.070	  0.030
          1.124	  0.070	  0.010
          1.126	  0.010	 -0.015
          1.128	 -0.155	 -0.040
          1.130	 -0.185	 -0.065
          1.132	 -0.250	 -0.085
          1.134	 -0.200	 -0.095
          1.136	 -0.215	 -0.105
          1.138	 -0.195	 -0.110
          1.140	 -0.165	 -0.110
          1.142	 -0.065	 -0.115
          1.144	 -0.095	 -0.125
          1.146	 -0.170	 -0.145
          1.148	 -0.245	 -0.170
          1.150	 -0.335	 -0.200
          1.152	 -0.415	 -0.230
          1.154	 -0.395	 -0.255
          1.156	 -0.400	 -0.275
          1.158	 -0.335	 -0.290
          1.160	 -0.270	 -0.290
          1.162	 -0.235	 -0.290
          1.164	 -0.270	 -0.280
          1.166	 -0.255	 -0.275
          1.168	 -0.350	 -0.270
          1.170	 -0.355	 -0.270
          1.172	 -0.500	 -0.275
          1.174	 -0.465	 -0.285
          1.176	 -0.380	 -0.290
          1.178	 -0.320	 -0.295
          1.180	 -0.360	 -0.295
          1.182	 -0.245	 -0.295
          1.184	 -0.270	 -0.295
          1.186	 -0.315	 -0.290
          1.188	 -0.325	 -0.290
          1.190	 -0.340	 -0.295
          1.192	 -0.495	 -0.300
          1.194	 -0.485	 -0.310
          1.196	 -0.440	 -0.315
          1.198	 -0.350	 -0.325
          1.200	 -0.365	 -0.330
          1.202	 -0.275	 -0.330
          1.204	 -0.310	 -0.320
          1.206	 -0.335	 -0.315
          1.208	 -0.385	 -0.305
          1.210	 -0.405	 -0.295
          1.212	 -0.445	 -0.285
          1.214	 -0.465	 -0.280
          1.216	 -0.400	 -0.285
          1.218	 -0.330	 -0.285
          1.220	 -0.260	 -0.295
          1.222	 -0.210	 -0.300
          1.224	 -0.340	 -0.310
          1.226	 -0.405	 -0.320
          1.228	 -0.415	 -0.325
          1.230	 -0.405	 -0.325
          1.232	 -0.510	 -0.325
          1.234	 -0.525	 -0.325
          1.236	 -0.485	 -0.320
          1.238	 -0.390	 -0.310
          1.240	 -0.360	 -0.305
          1.242	 -0.215	 -0.295
          1.244	 -0.245	 -0.285
          1.246	 -0.285	 -0.280
          1.248	 -0.335	 -0.275
          1.250	 -0.370	 -0.275
          1.252	 -0.470	 -0.275
          1.254	 -0.480	 -0.275
          1.256	 -0.430	 -0.280
          1.258	 -0.375	 -0.285
          1.260	 -0.295	 -0.285
          1.262	 -0.230	 -0.285
          1.264	 -0.275	 -0.285
          1.266	 -0.340	 -0.280
          1.268	 -0.335	 -0.280
          1.270	 -0.420	 -0.275
          1.272	 -0.425	 -0.275
          1.274	 -0.420	 -0.275
          1.276	 -0.370	 -0.275
          1.278	 -0.375	 -0.275
          1.280	 -0.370	 -0.275
          1.282	 -0.210	 -0.280
          1.284	 -0.290	 -0.285
          1.286	 -0.350	 -0.295
          1.288	 -0.395	 -0.300
          1.290	 -0.425	 -0.310
          1.292	 -0.465	 -0.315
          1.294	 -0.540	 -0.320
          1.296	 -0.435	 -0.320
          1.298	 -0.395	 -0.310
          1.300	 -0.305	 -0.295
          1.302	 -0.285	 -0.275
          1.304	 -0.275	 -0.255
          1.306	 -0.220	 -0.230
          1.308	 -0.275	 -0.210
          1.310	 -0.350	 -0.200
          1.312	 -0.405	 -0.195
          1.314	 -0.415	 -0.195
          1.316	 -0.310	 -0.205
          1.318	 -0.315	 -0.220
          1.320	 -0.260	 -0.230
          1.322	 -0.215	 -0.240
          1.324	 -0.230	 -0.240
          1.326	 -0.270	 -0.235
          1.328	 -0.315	 -0.220
          1.330	 -0.395	 -0.205
          1.332	 -0.360	 -0.190
          1.334	 -0.310	 -0.180
          1.336	 -0.285	 -0.175
          1.338	 -0.215	 -0.175
          1.340	 -0.200	 -0.185
          1.342	 -0.215	 -0.200
          1.344	 -0.240	 -0.210
          1.346	 -0.315	 -0.225
          1.348	 -0.350	 -0.230
          1.350	 -0.375	 -0.230
          1.352	 -0.405	 -0.225
          1.354	 -0.345	 -0.220
          1.356	 -0.260	 -0.210
          1.358	 -0.265	 -0.200
          1.360	 -0.170	 -0.195
          1.362	 -0.120	 -0.190
          1.364	 -0.255	 -0.190
          1.366	 -0.280	 -0.190
          1.368	 -0.315	 -0.190
          1.370	 -0.365	 -0.190
          1.372	 -0.315	 -0.185
          1.374	 -0.320	 -0.175
          1.376	 -0.260	 -0.165
          1.378	 -0.180	 -0.155
          1.380	 -0.080	 -0.145
          1.382	 -0.125	 -0.135
          1.384	 -0.185	 -0.130
          1.386	 -0.215	 -0.120
          1.388	 -0.230	 -0.115
          1.390	 -0.305	 -0.115
          1.392	 -0.240	 -0.110
          1.394	 -0.245	 -0.105
          1.396	 -0.170	 -0.105
          1.398	 -0.130	 -0.100
          1.400	 -0.090	 -0.100
          1.402	 -0.070	 -0.100
          1.404	 -0.155	 -0.100
          1.406	 -0.130	 -0.100
          1.408	 -0.180	 -0.105
          1.410	 -0.290	 -0.105
          1.412	 -0.315	 -0.110
          1.414	 -0.260	 -0.115
          1.416	 -0.185	 -0.115
          1.418	 -0.155	 -0.110
          1.420	 -0.070	 -0.105
          1.422	 -0.085	 -0.100
          1.424	 -0.130	 -0.095
          1.426	 -0.165	 -0.085
          1.428	 -0.150	 -0.080
          1.430	 -0.250	 -0.080
          1.432	 -0.270	 -0.075
          1.434	 -0.210	 -0.075
          1.436	 -0.195	 -0.080
          1.438	 -0.130	 -0.085
          1.440	  0.010	 -0.095
          1.442	 -0.055	 -0.100
          1.444	 -0.145	 -0.105
          1.446	 -0.205	 -0.105
          1.448	 -0.190	 -0.105
          1.450	 -0.300	 -0.105
          1.452	 -0.255	 -0.105
          1.454	 -0.210	 -0.100
          1.456	 -0.175	 -0.105
          1.458	 -0.120	 -0.105
          1.460	 -0.030	 -0.115
          1.462	 -0.070	 -0.120
          1.464	 -0.240	 -0.130
          1.466	 -0.240	 -0.140
          1.468	 -0.225	 -0.145
          1.470	 -0.300	 -0.145
          1.472	 -0.280	 -0.140
          1.474	 -0.280	 -0.130
          1.476	 -0.170	 -0.120
          1.478	 -0.160	 -0.110
          1.480	 -0.025	 -0.100
          1.482	 -0.085	 -0.095
          1.484	 -0.130	 -0.095
          1.486	 -0.170	 -0.100
          1.488	 -0.255	 -0.110
          1.490	 -0.285	 -0.120
          1.492	 -0.275	 -0.125
          1.494	 -0.265	 -0.130
          1.496	 -0.170	 -0.130
          1.498	 -0.105	 -0.120
          1.500	 -0.065	 -0.110
          1.502	 -0.030	 -0.095
          1.504	 -0.035	 -0.080
          1.506	 -0.130	 -0.065
          1.508	 -0.135	 -0.060
          1.510	 -0.235	 -0.055
          1.512	 -0.330	 -0.060
          1.514	 -0.225	 -0.070
          1.516	 -0.140	 -0.080
          1.518	 -0.050	 -0.090
          1.520	 -0.040	 -0.100
          1.522	  0.000	 -0.110
          1.524	 -0.105	 -0.110
          1.526	 -0.205	 -0.110
          1.528	 -0.235	 -0.110
          1.530	 -0.285	 -0.105
          1.532	 -0.250	 -0.105
          1.534	 -0.230	 -0.105
          1.536	 -0.160	 -0.105
          1.538	 -0.125	 -0.105
          1.540	 -0.050	 -0.100
          1.542	 -0.005	 -0.100
          1.544	 -0.075	 -0.090
          1.546	 -0.155	 -0.085
          1.548	 -0.245	 -0.075
          1.550	 -0.210	 -0.070
          1.552	 -0.230	 -0.065
          1.554	 -0.240	 -0.070
          1.556	 -0.110	 -0.075
          1.558	  0.000	 -0.085
          1.560	  0.015	 -0.090
          1.562	 -0.010	 -0.095
          1.564	 -0.190	 -0.090
          1.566	 -0.225	 -0.070
          1.568	 -0.130	 -0.040
          1.570	 -0.130	  0.005
          1.572	  0.005	  0.070
          1.574	  0.075	  0.145
          1.576	  0.180	  0.240
          1.578	  0.390	  0.345
          1.580	  0.500	  0.455
          1.582	  0.665	  0.560
          1.584	  0.740	  0.655
          1.586	  0.765	  0.730
          1.588	  0.680	  0.780
          1.590	  0.635	  0.790
          1.592	  0.610	  0.765
          1.594	  0.625	  0.700
          1.596	  0.540	  0.605
          1.598	  0.530	  0.485
          1.600	  0.425	  0.350
          1.602	  0.315	  0.215
          1.604	  0.090	  0.090
          1.606	 -0.155	 -0.015
          1.608	 -0.290	 -0.100
          1.610	 -0.390	 -0.160
          1.612	 -0.360	 -0.200
          1.614	 -0.255	 -0.215
          1.616	 -0.235	 -0.215
          1.618	 -0.100	 -0.205
          1.620	 -0.095	 -0.190
          1.622	 -0.095	 -0.170
          1.624	 -0.130	 -0.150
          1.626	 -0.215	 -0.130
          1.628	 -0.280	 -0.110
          1.630	 -0.200	 -0.095
          1.632	 -0.155	 -0.085
          1.634	 -0.135	 -0.080
          1.636	 -0.070	 -0.085
          1.638	 -0.050	 -0.090
          1.640	 -0.120	 -0.100
          1.642	 -0.050	 -0.115
          1.644	 -0.125	 -0.125
          1.646	 -0.145	 -0.135
          1.648	 -0.235	 -0.135
          1.650	 -0.250	 -0.135
          1.652	 -0.210	 -0.125
          1.654	 -0.180	 -0.115
          1.656	 -0.130	 -0.100
          1.658	 -0.020	 -0.090
          1.660	  0.020	 -0.080
          1.662	 -0.035	 -0.075
          1.664	 -0.055	 -0.075
          1.666	 -0.050	 -0.080
          1.668	 -0.150	 -0.080
          1.670	 -0.245	 -0.085
          1.672	 -0.240	 -0.090
          1.674	 -0.165	 -0.095
          1.676	 -0.040	 -0.095
          1.678	  0.070	 -0.095
          1.680	  0.005	 -0.095
          1.682	 -0.090	 -0.095
          1.684	 -0.085	 -0.095
          1.686	 -0.155	 -0.095
          1.688	 -0.205	 -0.095
          1.690	 -0.190	 -0.090
          1.692	 -0.200	 -0.085
          1.694	 -0.100	 -0.080
          1.696	 -0.035	 -0.070
          1.698	  0.100	 -0.065
          1.700	  0.020	 -0.060
          1.702	 -0.035	 -0.060
          1.704	 -0.075	 -0.060
          1.706	 -0.140	 -0.070
          1.708	 -0.205	 -0.075
          1.710	 -0.165	 -0.085
          1.712	 -0.160	 -0.090
          1.714	 -0.130	 -0.095
          1.716	 -0.055	 -0.090
          1.718	  0.040	 -0.085
          1.720	  0.045	 -0.075
          1.722	 -0.025	 -0.065
          1.724	 -0.090	 -0.060
          1.726	 -0.060	 -0.055
          1.728	 -0.155	 -0.055
          1.730	 -0.135	 -0.060
          1.732	 -0.135	 -0.065
          1.734	 -0.030	 -0.070
          1.736	 -0.105	 -0.070
          1.738	  0.025	 -0.070
          1.740	  0.080	 -0.060
          1.742	  0.065	 -0.050
          1.744	  0.035	 -0.030
          1.746	 -0.040	 -0.015
          1.748	 -0.165	  0.000
          1.750	 -0.095	  0.010
          1.752	 -0.020	  0.020
          1.754	  0.070	  0.025
          1.756	  0.080	  0.030
          1.758	  0.110	  0.030
          1.760	  0.150	  0.040
          1.762	  0.150	  0.050
          1.764	  0.080	  0.060
          1.766	  0.065	  0.075
          1.768	 -0.035	  0.090
          1.770	  0.045	  0.100
          1.772	  0.065	  0.110
          1.774	  0.100	  0.115
          1.776	  0.125	  0.120
          1.778	  0.220	  0.120
          1.780	  0.240	  0.120
          1.782	  0.175	  0.120
          1.784	  0.150	  0.125
          1.786	  0.170	  0.135
          1.788	  0.115	  0.150
          1.790	  0.100	  0.170
          1.792	  0.110	  0.185
          1.794	  0.200	  0.200
          1.796	  0.305	  0.215
          1.798	  0.400	  0.220
          1.800	  0.310	  0.225
          1.802	  0.290	  0.230
          1.804	  0.305	  0.225
          1.806	  0.225	  0.225
          1.808	  0.160	  0.225
          1.810	  0.195	  0.225
          1.812	  0.160	  0.230
          1.814	  0.180	  0.235
          1.816	  0.250	  0.245
          1.818	  0.410	  0.255
          1.820	  0.410	  0.260
          1.822	  0.385	  0.270
          1.824	  0.400	  0.270
          1.826	  0.285	  0.270
          1.828	  0.140	  0.270
          1.830	  0.165	  0.260
          1.832	  0.210	  0.245
          1.834	  0.245	  0.230
          1.836	  0.280	  0.215
          1.838	  0.305	  0.200
          1.840	  0.390	  0.185
          1.842	  0.255	  0.175
          1.844	  0.155	  0.165
          1.846	  0.170	  0.155
          1.848	  0.115	  0.150
          1.850	  0.080	  0.140
          1.852	  0.030	  0.130
          1.854	  0.175	  0.115
          1.856	  0.180	  0.095
          1.858	  0.185	  0.080
          1.860	  0.195	  0.060
          1.862	  0.110	  0.040
          1.864	  0.085	  0.020
          1.866	  0.015	  0.005
          1.868	 -0.050	 -0.010
          1.870	 -0.060	 -0.020
          1.872	 -0.030	 -0.030
          1.874	 -0.035	 -0.040
          1.876	  0.055	 -0.050
          1.878	  0.125	 -0.055
          1.880	  0.065	 -0.060
          1.882	  0.030	 -0.060
          1.884	  0.065	 -0.060
          1.886	 -0.090	 -0.060
          1.888	 -0.095	 -0.055
          1.890	 -0.140	 -0.060
          1.892	 -0.130	 -0.065
          1.894	  0.020	 -0.070
          1.896	  0.070	 -0.080
          1.898	  0.050	 -0.095
          1.900	  0.025	 -0.105
          1.902	 -0.030	 -0.110
          1.904	 -0.070	 -0.110
          1.906	 -0.090	 -0.105
          1.908	 -0.055	 -0.095
          1.910	 -0.110	 -0.085
          1.912	 -0.080	 -0.080
          1.914	 -0.035	 -0.075
          1.916	  0.105	 -0.080
          1.918	  0.095	 -0.085
          1.920	 -0.050	 -0.095
          1.922	  0.015	 -0.105
          1.924	 -0.015	 -0.105
          1.926	 -0.135	 -0.105
          1.928	 -0.080	 -0.100
          1.930	 -0.050	 -0.085
          1.932	 -0.025	 -0.070
          1.934	 -0.020	 -0.060
          1.936	  0.110	 -0.050
          1.938	  0.075	 -0.055
          1.940	  0.080	 -0.065
          1.942	  0.010	 -0.080
          1.944	 -0.040	 -0.100
          1.946	 -0.150	 -0.120
          1.948	 -0.110	 -0.125
          1.950	 -0.090	 -0.125
          1.952	 -0.085	 -0.110
          1.954	  0.020	 -0.090
          1.956	  0.100	 -0.065
          1.958	  0.095	 -0.040
          1.960	  0.180	 -0.025
          1.962	  0.120	 -0.020
          1.964	  0.030	 -0.025
          1.966	 -0.110	 -0.040
          1.968	 -0.145	 -0.060
          1.970	 -0.060	 -0.080
          1.972	  0.015	 -0.095
          1.974	  0.025	 -0.100
          1.976	  0.115	 -0.095
          1.978	  0.140	 -0.075
          1.980	  0.130	 -0.055
          1.982	  0.065	 -0.035
          1.984	  0.020	 -0.020
          1.986	 -0.050	 -0.015
          1.988	 -0.010	 -0.020
          1.990	 -0.025	 -0.035
          1.992	  0.095	 -0.050
          1.994	  0.010	 -0.070
          1.996	  0.095	 -0.085
          1.998	  0.135	 -0.090
          2.000	  0.090	 -0.085
          2.002	  0.035	 -0.075
          2.004	  0.035	 -0.060
          2.006	 -0.045	 -0.050
          2.008	 -0.020	 -0.040
          2.010	 -0.040	 -0.040
          2.012	 -0.005	 -0.040
          2.014	  0.035	 -0.050
          2.016	  0.165	 -0.060
          2.018	  0.110	 -0.065
          2.020	  0.115	 -0.065
          2.022	  0.100	 -0.055
          2.024	  0.115	 -0.040
          2.026	 -0.015	 -0.030
          2.028	  0.050	 -0.015
          2.030	 -0.005	 -0.010
          2.032	  0.030	 -0.010
          2.034	  0.060	 -0.015
          2.036	  0.180	 -0.030
          2.038	  0.200	 -0.045
          2.040	  0.100	 -0.055
          2.042	  0.050	 -0.065
          2.044	  0.035	 -0.065
          2.046	 -0.100	 -0.065
          2.048	 -0.010	 -0.060
          2.050	  0.015	 -0.050
          2.052	  0.165	 -0.045
          2.054	  0.085	 -0.040
          2.056	  0.140	 -0.045
          2.058	  0.090	 -0.045
          2.060	  0.160	 -0.050
          2.062	  0.090	 -0.050
          2.064	  0.000	 -0.050
          2.066	 -0.065	 -0.045
          2.068	 -0.025	 -0.035
          2.070	  0.075	 -0.030
          2.072	  0.120	 -0.020
          2.074	  0.125	 -0.010
          2.076	  0.220	 -0.010
          2.078	  0.215	 -0.010
          2.080	  0.155	 -0.015
          2.082	  0.095	 -0.020
          2.084	  0.020	 -0.025
          2.086	 -0.005	 -0.030
          2.088	  0.035	 -0.030
          2.090	  0.135	 -0.035
          2.092	  0.095	 -0.040
          2.094	  0.060	 -0.040
          2.096	  0.200	 -0.045
          2.098	  0.160	 -0.050
          2.100	  0.080	 -0.055
          2.102	  0.060	 -0.055
          2.104	  0.010	 -0.060
          2.106	 -0.030	 -0.055
          2.108	 -0.050	 -0.055
          2.110	  0.030	 -0.050
          2.112	  0.140	 -0.045
          2.114	  0.175	 -0.040
          2.116	  0.200	 -0.035
          2.118	  0.200	 -0.035
          2.120	  0.165	 -0.035
          2.122	  0.080	 -0.040
          2.124	 -0.050	 -0.040
          2.126	  0.015	 -0.040
          2.128	  0.010	 -0.040
          2.130	  0.020	 -0.040
          2.132	  0.130	 -0.035
          2.134	  0.170	 -0.035
          2.136	  0.200	 -0.030
          2.138	  0.215	 -0.030
          2.140	  0.175	 -0.035
          2.142	  0.080	 -0.035
          2.144	 -0.005	 -0.045
          2.146	 -0.060	 -0.050
          2.148	 -0.035	 -0.055
          2.150	  0.020	 -0.065
          2.152	  0.125	 -0.070
          2.154	  0.150	 -0.070
          2.156	  0.225	 -0.065
          2.158	  0.280	 -0.060
          2.160	  0.110	 -0.055
          2.162	  0.030	 -0.045
          2.164	  0.070	 -0.035
          2.166	  0.030	 -0.030
          2.168	  0.025	 -0.025
          2.170	  0.045	 -0.025
          2.172	  0.155	 -0.030
          2.174	  0.160	 -0.035
          2.176	  0.230	 -0.040
          2.178	  0.265	 -0.045
          2.180	  0.145	 -0.045
          2.182	  0.110	 -0.040
          2.184	  0.045	 -0.035
          2.186	  0.025	 -0.030
          2.188	  0.120	 -0.015
          2.190	  0.085	 -0.005
          2.192	  0.160	  0.005
          2.194	  0.265	  0.015
          2.196	  0.270	  0.020
          2.198	  0.245	  0.025
          2.200	  0.225	  0.025
          2.202	  0.170	  0.025
          2.204	  0.065	  0.025
          2.206	  0.105	  0.020
          2.208	  0.105	  0.015
          2.210	  0.190	  0.010
          2.212	  0.130	  0.010
          2.214	  0.245	  0.005
          2.216	  0.300	  0.000
          2.218	  0.210	  0.000
          2.220	  0.160	  0.000
          2.222	  0.225	  0.000
          2.224	  0.080	  0.000
          2.226	  0.035	 -0.005
          2.228	  0.035	 -0.010
          2.230	  0.045	 -0.015
          2.232	  0.095	 -0.025
          2.234	  0.225	 -0.035
          2.236	  0.260	 -0.050
          2.238	  0.195	 -0.060
          2.240	  0.175	 -0.065
          2.242	  0.130	 -0.065
          2.244	  0.030	 -0.065
          2.246	  0.035	 -0.060
          2.248	 -0.035	 -0.055
          2.250	  0.025	 -0.050
          2.252	  0.170	 -0.050
          2.254	  0.195	 -0.055
          2.256	  0.215	 -0.060
          2.258	  0.190	 -0.065
          2.260	  0.135	 -0.070
          2.262	  0.085	 -0.075
          2.264	 -0.030	 -0.080
          2.266	  0.005	 -0.075
          2.268	  0.025	 -0.070
          2.270	  0.075	 -0.065
          2.272	  0.135	 -0.055
          2.274	  0.230	 -0.050
          2.276	  0.290	 -0.050
          2.278	  0.195	 -0.050
          2.280	  0.110	 -0.060
          2.282	  0.035	 -0.070
          2.284	 -0.015	 -0.085
          2.286	  0.000	 -0.100
          2.288	  0.000	 -0.110
          2.290	  0.060	 -0.115
          2.292	  0.145	 -0.115
          2.294	  0.205	 -0.110
          2.296	  0.150	 -0.095
          2.298	  0.145	 -0.080
          2.300	  0.180	 -0.065
          2.302	  0.105	 -0.050
          2.304	 -0.020	 -0.040
          2.306	  0.050	 -0.035
          2.308	  0.045	 -0.040
          2.310	  0.105	 -0.055
          2.312	  0.160	 -0.065
          2.314	  0.245	 -0.080
          2.316	  0.170	 -0.095
          2.318	  0.095	 -0.100
          2.320	  0.105	 -0.100
          2.322	  0.085	 -0.100
          2.324	 -0.025	 -0.100
          2.326	  0.030	 -0.095
          2.328	  0.015	 -0.095
          2.330	  0.055	 -0.095
          2.332	  0.090	 -0.095
          2.334	  0.160	 -0.090
          2.336	  0.190	 -0.080
          2.338	  0.205	 -0.055
          2.340	  0.145	 -0.020
          2.342	  0.190	  0.035
          2.344	  0.230	  0.105
          2.346	  0.315	  0.190
          2.348	  0.440	  0.280
          2.350	  0.635	  0.380
          2.352	  0.690	  0.480
          2.354	  0.835	  0.575
          2.356	  0.925	  0.655
          2.358	  1.050	  0.715
          2.360	  1.040	  0.750
          2.362	  0.945	  0.760
          2.364	  0.880	  0.735
          2.366	  0.760	  0.680
          2.368	  0.715	  0.590
          2.370	  0.685	  0.480
          2.372	  0.530	  0.360
          2.374	  0.480	  0.230
          2.376	  0.365	  0.110
          2.378	  0.150	  0.005
          2.380	  0.060	 -0.080
          2.382	  0.030	 -0.130
          2.384	  0.040	 -0.160
          2.386	 -0.050	 -0.160
          2.388	  0.025	 -0.145
          2.390	  0.055	 -0.125
          2.392	  0.120	 -0.100
          2.394	  0.155	 -0.075
          2.396	  0.235	 -0.055
          2.398	  0.240	 -0.045
          2.400	  0.140	 -0.040
          2.402	  0.140	 -0.040
          2.404	  0.085	 -0.040
          2.406	  0.100	 -0.045
          2.408	  0.140	 -0.050
          2.410	  0.125	 -0.055
          2.412	  0.095	 -0.055
          2.414	  0.205	 -0.060
          2.416	  0.210	 -0.065
          2.418	  0.140	 -0.070
          2.420	  0.130	 -0.075
          2.422	  0.125	 -0.070
          2.424	  0.060	 -0.070
          2.426	  0.055	 -0.060
          2.428	  0.155	 -0.055
          2.430	  0.195	 -0.050
          2.432	  0.170	 -0.045
          2.434	  0.250	 -0.040
          2.436	  0.200	 -0.040
          2.438	  0.140	 -0.045
          2.440	  0.095	 -0.045
          2.442	  0.060	 -0.050
          2.444	  0.090	 -0.045
          2.446	  0.100	 -0.045
          2.448	  0.150	 -0.035
          2.450	  0.225	 -0.025
          2.452	  0.270	 -0.015
          2.454	  0.330	 -0.010
          2.456	  0.365	 -0.005
          2.458	  0.185	 -0.005
          2.460	  0.060	 -0.010
          2.462	  0.060	 -0.015
          2.464	  0.140	 -0.025
          2.466	  0.080	 -0.035
          2.468	  0.170	 -0.040
          2.470	  0.165	 -0.040
          2.472	  0.260	 -0.035
          2.474	  0.290	 -0.025
          2.476	  0.310	 -0.010
          2.478	  0.270	  0.000
          2.480	  0.175	  0.010
          2.482	  0.130	  0.010
          2.484	  0.080	  0.010
          2.486	  0.100	  0.005
          2.488	  0.155	  0.000
          2.490	  0.170	 -0.010
          2.492	  0.270	 -0.015
          2.494	  0.310	 -0.015
          2.496	  0.310	 -0.010
          2.498	  0.280	  0.000
          2.500	  0.220	  0.015
          2.502	  0.130	  0.030
          2.504	  0.115	  0.040
          2.506	  0.185	  0.045
          2.508	  0.230	  0.045
          2.510	  0.255	  0.040
          2.512	  0.340	  0.035
          2.514	  0.315	  0.030
          2.516	  0.325	  0.030
          2.518	  0.260	  0.040
          2.520	  0.205	  0.050
          2.522	  0.145	  0.070
          2.524	  0.240	  0.085
          2.526	  0.240	  0.105
          2.528	  0.265	  0.115
          2.530	  0.295	  0.120
          2.532	  0.400	  0.120
          2.534	  0.395	  0.115
          2.536	  0.350	  0.110
          2.538	  0.315	  0.110
          2.540	  0.360	  0.115
          2.542	  0.250	  0.125
          2.544	  0.255	  0.145
          2.546	  0.235	  0.165
          2.548	  0.350	  0.185
          2.550	  0.405	  0.195
          2.552	  0.550	  0.200
          2.554	  0.475	  0.200
          2.556	  0.440	  0.190
          2.558	  0.410	  0.185
          2.560	  0.395	  0.180
          2.562	  0.290	  0.180
          2.564	  0.295	  0.185
          2.566	  0.345	  0.200
          2.568	  0.390	  0.220
          2.570	  0.415	  0.235
          2.572	  0.575	  0.250
          2.574	  0.580	  0.255
          2.576	  0.555	  0.255
          2.578	  0.400	  0.255
          2.580	  0.335	  0.250
          2.582	  0.355	  0.250
          2.584	  0.340	  0.250
          2.586	  0.395	  0.255
          2.588	  0.515	  0.265
          2.590	  0.565	  0.275
          2.592	  0.575	  0.285
          2.594	  0.550	  0.285
          2.596	  0.480	  0.275
          2.598	  0.435	  0.260
          2.600	  0.435	  0.240
          2.602	  0.270	  0.220
          2.604	  0.335	  0.205
          2.606	  0.375	  0.195
          2.608	  0.375	  0.190
          2.610	  0.440	  0.190
          2.612	  0.460	  0.190
          2.614	  0.560	  0.190
          2.616	  0.425	  0.190
          2.618	  0.335	  0.175
          2.620	  0.310	  0.160
          2.622	  0.205	  0.140
          2.624	  0.255	  0.120
          2.626	  0.230	  0.105
          2.628	  0.285	  0.095
          2.630	  0.370	  0.090
          2.632	  0.455	  0.095
          2.634	  0.380	  0.100
          2.636	  0.385	  0.105
          2.638	  0.285	  0.100
          2.640	  0.185	  0.090
          2.642	  0.095	  0.070
          2.644	  0.140	  0.050
          2.646	  0.180	  0.025
          2.648	  0.190	  0.005
          2.650	  0.230	 -0.005
          2.652	  0.315	 -0.010
          2.654	  0.300	 -0.005
          2.656	  0.235	  0.005
          2.658	  0.180	  0.015
          2.660	  0.200	  0.025
          2.662	  0.120	  0.025
          2.664	  0.120	  0.015
          2.666	  0.125	  0.000
          2.668	  0.140	 -0.025
          2.670	  0.160	 -0.050
          2.672	  0.180	 -0.080
          2.674	  0.235	 -0.100
          2.676	  0.115	 -0.120
          2.678	  0.055	 -0.130
          2.680	 -0.035	 -0.135
          2.682	 -0.045	 -0.135
          2.684	  0.010	 -0.130
          2.686	  0.035	 -0.125
          2.688	  0.080	 -0.120
          2.690	  0.125	 -0.115
          2.692	  0.175	 -0.115
          2.694	  0.205	 -0.115
          2.696	  0.145	 -0.115
          2.698	  0.065	 -0.115
          2.700	  0.015	 -0.120
          2.702	 -0.050	 -0.120
          2.704	 -0.065	 -0.120
          2.706	  0.030	 -0.120
          2.708	  0.095	 -0.115
          2.710	  0.115	 -0.110
          2.712	  0.160	 -0.100
          2.714	  0.275	 -0.090
          2.716	  0.185	 -0.080
          2.718	  0.110	 -0.070
          2.720	  0.010	 -0.060
          2.722	  0.065	 -0.050
          2.724	  0.020	 -0.045
          2.726	  0.120	 -0.045
          2.728	  0.145	 -0.045
          2.730	  0.225	 -0.050
          2.732	  0.265	 -0.055
          2.734	  0.225	 -0.060
          2.736	  0.130	 -0.065
          2.738	  0.115	 -0.070
          2.740	  0.045	 -0.070
          2.742	 -0.005	 -0.075
          2.744	  0.030	 -0.075
          2.746	  0.060	 -0.070
          2.748	  0.125	 -0.065
          2.750	  0.180	 -0.060
          2.752	  0.235	 -0.050
          2.754	  0.250	 -0.045
          2.756	  0.205	 -0.035
          2.758	  0.220	 -0.025
          2.760	  0.200	 -0.025
          2.762	  0.075	 -0.025
          2.764	  0.005	 -0.030
          2.766	  0.040	 -0.040
          2.768	  0.120	 -0.050
          2.770	  0.195	 -0.060
          2.772	  0.245	 -0.070
          2.774	  0.275	 -0.070
          2.776	  0.150	 -0.065
          2.778	  0.140	 -0.050
          2.780	  0.120	 -0.035
          2.782	  0.065	 -0.015
          2.784	  0.090	  0.005
          2.786	  0.180	  0.025
          2.788	  0.270	  0.035
          2.790	  0.330	  0.040
          2.792	  0.370	  0.040
          2.794	  0.300	  0.030
          2.796	  0.220	  0.020
          2.798	  0.175	  0.010
          2.800	  0.110	 -0.005
          2.802	  0.045	 -0.015
          2.804	  0.065	 -0.025
          2.806	  0.135	 -0.030
          2.808	  0.180	 -0.030
          2.810	  0.295	 -0.030
          2.812	  0.285	 -0.030
          2.814	  0.265	 -0.025
          2.816	  0.185	 -0.020
          2.818	  0.150	 -0.015
          2.820	  0.065	 -0.005
          2.822	  0.065	  0.000
          2.824	  0.140	  0.000
          2.826	  0.180	  0.005
          2.828	  0.255	  0.000
          2.830	  0.295	  0.000
          2.832	  0.230	 -0.005
          2.834	  0.285	 -0.015
          2.836	  0.175	 -0.020
          2.838	  0.170	 -0.025
          2.840	  0.000	 -0.030
          2.842	  0.040	 -0.035
          2.844	  0.125	 -0.035
          2.846	  0.180	 -0.035
          2.848	  0.150	 -0.030
          2.850	  0.265	 -0.030
          2.852	  0.250	 -0.025
          2.854	  0.225	 -0.025
          2.856	  0.200	 -0.020
          2.858	  0.190	 -0.020
          2.860	  0.090	 -0.020
          2.862	  0.080	 -0.020
          2.864	  0.135	 -0.020
          2.866	  0.130	 -0.020
          2.868	  0.205	 -0.020
          2.870	  0.265	 -0.020
          2.872	  0.260	 -0.025
          2.874	  0.240	 -0.030
          2.876	  0.170	 -0.035
          2.878	  0.135	 -0.035
          2.880	  0.045	 -0.040
          2.882	  0.060	 -0.045
          2.884	  0.035	 -0.045
          2.886	  0.120	 -0.045
          2.888	  0.210	 -0.040
          2.890	  0.295	 -0.040
          2.892	  0.295	 -0.035
          2.894	  0.260	 -0.030
          2.896	  0.125	 -0.025
          2.898	  0.105	 -0.025
          2.900	  0.050	 -0.025
          2.902	  0.040	 -0.035
          2.904	  0.110	 -0.040
          2.906	  0.160	 -0.050
          2.908	  0.125	 -0.060
          2.910	  0.245	 -0.065
          2.912	  0.215	 -0.070
          2.914	  0.180	 -0.065
          2.916	  0.145	 -0.050
          2.918	  0.150	 -0.040
          2.920	  0.055	 -0.020
          2.922	  0.115	 -0.005
          2.924	  0.095	  0.005
          2.926	  0.180	  0.005
          2.928	  0.265	  0.005
          2.930	  0.295	 -0.005
          2.932	  0.315	 -0.020
          2.934	  0.185	 -0.030
          2.936	  0.145	 -0.045
          2.938	  0.095	 -0.050
          2.940	  0.030	 -0.050
          2.942	  0.050	 -0.045
          2.944	  0.090	 -0.040
          2.946	  0.215	 -0.030
          2.948	  0.200	 -0.020
          2.950	  0.285	 -0.015
          2.952	  0.290	 -0.015
          2.954	  0.205	 -0.015
          2.956	  0.155	 -0.020
          2.958	  0.125	 -0.025
          2.960	  0.110	 -0.025
          2.962	  0.125	 -0.025
          2.964	  0.080	 -0.025
          2.966	  0.115	 -0.025
          2.968	  0.205	 -0.025
          2.970	  0.300	 -0.025
          2.972	  0.215	 -0.025
          2.974	  0.165	 -0.030
          2.976	  0.165	 -0.035
          2.978	  0.130	 -0.035
          2.980	  0.060	 -0.030
          2.982	  0.085	 -0.020
          2.984	  0.165	 -0.005
          2.986	  0.265	  0.010
          2.988	  0.230	  0.030
          2.990	  0.290	  0.045
          2.992	  0.300	  0.060
          2.994	  0.395	  0.065
          2.996	  0.245	  0.065
          2.998	  0.205	  0.060
          3.000	  0.130	  0.050
          3.002	  0.140	  0.035
          3.004	  0.150	  0.025
          3.006	  0.180	  0.015
          3.008	  0.220	  0.015
          3.010	  0.290	  0.015
          3.012	  0.295	  0.015
          3.014	  0.290	  0.020
          3.016	  0.175	  0.025
          3.018	  0.195	  0.025
          3.020	  0.140	  0.025
          3.022	  0.085	  0.015
          3.024	  0.135	  0.005
          3.026	  0.185	 -0.010
          3.028	  0.195	 -0.025
          3.030	  0.200	 -0.035
          3.032	  0.180	 -0.045
          3.034	  0.200	 -0.050
          3.036	  0.115	 -0.055
          3.038	  0.115	 -0.055
          3.040	  0.060	 -0.050
          3.042	  0.025	 -0.050
          3.044	  0.075	 -0.050
          3.046	  0.130	 -0.050
          3.048	  0.175	 -0.055
          3.050	  0.235	 -0.065
          3.052	  0.170	 -0.075
          3.054	  0.150	 -0.080
          3.056	  0.095	 -0.090
          3.058	  0.055	 -0.090
          3.060	  0.040	 -0.090
          3.062	 -0.025	 -0.090
          3.064	  0.030	 -0.085
          3.066	  0.130	 -0.075
          3.068	  0.180	 -0.070
          3.070	  0.215	 -0.070
          3.072	  0.165	 -0.070
          3.074	  0.180	 -0.070
          3.076	  0.095	 -0.075
          3.078	 -0.010	 -0.085
          3.080	  0.015	 -0.085
          3.082	  0.030	 -0.090
          3.084	  0.095	 -0.085
          3.086	  0.110	 -0.080
          3.088	  0.135	 -0.075
          3.090	  0.130	 -0.065
          3.092	  0.220	 -0.060
          3.094	  0.155	 -0.055
          3.096	  0.170	 -0.055
          3.098	  0.035	 -0.060
          3.100	  0.030	 -0.065
          3.102	  0.025	 -0.070
          3.104	  0.075	 -0.080
          3.106	  0.055	 -0.085
          3.108	  0.190	 -0.095
          3.110	  0.220	 -0.100
          3.112	  0.175	 -0.110
          3.114	  0.070	 -0.120
          3.116	 -0.030	 -0.130
          3.118	 -0.110	 -0.140
          3.120	 -0.065	 -0.145
          3.122	 -0.050	 -0.155
          3.124	 -0.020	 -0.155
          3.126	 -0.015	 -0.150
          3.128	  0.155	 -0.135
          3.130	  0.185	 -0.105
          3.132	  0.270	 -0.060
          3.134	  0.225	  0.000
          3.136	  0.255	  0.075
          3.138	  0.230	  0.165
          3.140	  0.325	  0.265
          3.142	  0.460	  0.370
          3.144	  0.595	  0.475
          3.146	  0.825	  0.570
          3.148	  1.030	  0.655
          3.150	  1.090	  0.715
          3.152	  1.080	  0.750
          3.154	  0.920	  0.755
          3.156	  0.880	  0.725
          3.158	  0.735	  0.665
          3.160	  0.640	  0.580
          3.162	  0.565	  0.470
          3.164	  0.545	  0.350
          3.166	  0.400	  0.230
          3.168	  0.320	  0.115
          3.170	  0.175	  0.015
          3.172	  0.125	 -0.065
          3.174	  0.090	 -0.115
          3.176	  0.035	 -0.140
          3.178	 -0.030	 -0.140
          3.180	 -0.050	 -0.125
          3.182	 -0.060	 -0.100
          3.184	  0.095	 -0.070
          3.186	  0.180	 -0.045
          3.188	  0.275	 -0.025
          3.190	  0.260	 -0.015
          3.192	  0.240	 -0.015
          3.194	  0.160	 -0.025
          3.196	  0.090	 -0.040
          3.198	 -0.020	 -0.055
          3.200	  0.050	 -0.065
          3.202	  0.020	 -0.070
          3.204	  0.085	 -0.075
          3.206	  0.105	 -0.070
          3.208	  0.220	 -0.065
          3.210	  0.265	 -0.060
          3.212	  0.255	 -0.055
          3.214	  0.120	 -0.050
          3.216	  0.110	 -0.050
          3.218	 -0.040	 -0.055
          3.220	  0.005	 -0.055
          3.222	  0.070	 -0.060
          3.224	  0.155	 -0.060
          3.226	  0.130	 -0.060
          3.228	  0.215	 -0.060
          3.230	  0.225	 -0.050
          3.232	  0.180	 -0.045
          3.234	  0.100	 -0.035
          3.236	  0.080	 -0.030
          3.238	  0.015	 -0.025
          3.240	  0.085	 -0.020
          3.242	  0.165	 -0.020
          3.244	  0.150	 -0.015
          3.246	  0.160	 -0.010
          3.248	  0.285	 -0.005
          3.250	  0.300	  0.000
          3.252	  0.245	  0.005
          3.254	  0.160	  0.005
          3.256	  0.115	  0.000
          3.258	  0.015	 -0.005
          3.260	  0.055	 -0.020
          3.262	  0.125	 -0.030
          3.264	  0.170	 -0.045
          3.266	  0.145	 -0.055
          3.268	  0.210	 -0.055
          3.270	  0.215	 -0.055
          3.272	  0.220	 -0.045
          3.274	  0.130	 -0.030
          3.276	  0.115	 -0.015
          3.278	  0.025	 -0.005
          3.280	  0.070	  0.005
          3.282	  0.110	  0.005
          3.284	  0.215	  0.005
          3.286	  0.220	  0.005
          3.288	  0.315	  0.000
          3.290	  0.245	  0.000
          3.292	  0.230	  0.000
          3.294	  0.170	  0.005
          3.296	  0.160	  0.010
          3.298	  0.100	  0.015
          3.300	  0.055	  0.025
          3.302	  0.130	  0.030
          3.304	  0.245	  0.030
          3.306	  0.245	  0.035
          3.308	  0.315	  0.040
          3.310	  0.295	  0.045
          3.312	  0.270	  0.060
          3.314	  0.250	  0.075
          3.316	  0.290	  0.090
          3.318	  0.235	  0.105
          3.320	  0.150	  0.120
          3.322	  0.185	  0.130
          3.324	  0.270	  0.135
          3.326	  0.340	  0.130
          3.328	  0.455	  0.130
          3.330	  0.425	  0.125
          3.332	  0.330	  0.125
          3.334	  0.310	  0.130
          3.336	  0.275	  0.140
          3.338	  0.200	  0.150
          3.340	  0.180	  0.165
          3.342	  0.290	  0.175
          3.344	  0.360	  0.185
          3.346	  0.435	  0.190
          3.348	  0.465	  0.195
          3.350	  0.475	  0.195
          3.352	  0.455	  0.200
          3.354	  0.400	  0.210
          3.356	  0.300	  0.220
          3.358	  0.315	  0.235
          3.360	  0.335	  0.250
          3.362	  0.410	  0.270
          3.364	  0.480	  0.280
          3.366	  0.510	  0.290
          3.368	  0.530	  0.295
          3.370	  0.560	  0.300
          3.372	  0.570	  0.300
          3.374	  0.485	  0.300
          3.376	  0.340	  0.300
          3.378	  0.340	  0.305
          3.380	  0.425	  0.310
          3.382	  0.420	  0.315
          3.384	  0.465	  0.320
          3.386	  0.620	  0.320
          3.388	  0.575	  0.320
          3.390	  0.560	  0.310
          3.392	  0.535	  0.300
          3.394	  0.375	  0.285
          3.396	  0.310	  0.270
          3.398	  0.380	  0.260
          3.400	  0.345	  0.245
          3.402	  0.345	  0.235
          3.404	  0.400	  0.225
          3.406	  0.450	  0.215
          3.408	  0.460	  0.200
          3.410	  0.400	  0.185
          3.412	  0.350	  0.170
          3.414	  0.280	  0.155
          3.416	  0.225	  0.140
          3.418	  0.140	  0.125
          3.420	  0.200	  0.115
          3.422	  0.235	  0.105
          3.424	  0.285	  0.100
          3.426	  0.405	  0.090
          3.428	  0.330	  0.085
          3.430	  0.300	  0.075
          3.432	  0.270	  0.065
          3.434	  0.190	  0.050
          3.436	  0.060	  0.035
          3.438	  0.080	  0.020
          3.440	  0.130	  0.000
          3.442	  0.145	 -0.015
          3.444	  0.135	 -0.035
          3.446	  0.240	 -0.045
          3.448	  0.185	 -0.055
          3.450	  0.170	 -0.060
          3.452	  0.135	 -0.060
          3.454	  0.115	 -0.060
          3.456	  0.020	 -0.055
          3.458	  0.055	 -0.045
          3.460	  0.065	 -0.045
          3.462	  0.100	 -0.045
          3.464	  0.100	 -0.050
          3.466	  0.235	 -0.060
          3.468	  0.135	 -0.075
          3.470	  0.155	 -0.090
          3.472	  0.140	 -0.105
          3.474	  0.015	 -0.115
          3.476	 -0.080	 -0.120
          3.478	 -0.025	 -0.115
          3.480	  0.025	 -0.110
          3.482	  0.050	 -0.100
          3.484	  0.090	 -0.090
          3.486	  0.180	 -0.080
          3.488	  0.170	 -0.075
          3.490	  0.190	 -0.075
          3.492	  0.105	 -0.080
          3.494	  0.040	 -0.085
          3.496	 -0.035	 -0.090
          3.498	 -0.015	 -0.095
          3.500	  0.005	 -0.095
          3.502	  0.055	 -0.090
          3.504	  0.090	 -0.085
          3.506	  0.130	 -0.080
          3.508	  0.200	 -0.080
          3.510	  0.165	 -0.075
          3.512	  0.140	 -0.075
          3.514	  0.050	 -0.080
          3.516	  0.015	 -0.085
          3.518	  0.035	 -0.090
          3.520	 -0.020	 -0.090
          3.522	  0.025	 -0.090
          3.524	  0.150	 -0.090
          3.526	  0.165	 -0.085
          3.528	  0.185	 -0.080
          3.530	  0.190	 -0.075
          3.532	  0.120	 -0.075
          3.534	  0.070	 -0.075
          3.536	 -0.020	 -0.075
          3.538	  0.020	 -0.080
          3.540	  0.010	 -0.085
          3.542	  0.090	 -0.095
          3.544	  0.035	 -0.100
          3.546	  0.070	 -0.105
          3.548	  0.170	 -0.110
          3.550	  0.195	 -0.110
          3.552	  0.180	 -0.105
          3.554	 -0.015	 -0.100
          3.556	 -0.005	 -0.090
          3.558	  0.010	 -0.080
          3.560	  0.060	 -0.070
          3.562	  0.125	 -0.065
          3.564	  0.130	 -0.065
          3.566	  0.165	 -0.070
          3.568	  0.150	 -0.075
          3.570	  0.170	 -0.085
          3.572	  0.095	 -0.095
          3.574	  0.065	 -0.100
          3.576	 -0.040	 -0.100
          3.578	 -0.035	 -0.100
          3.580	  0.010	 -0.090
          3.582	  0.140	 -0.085
          3.584	  0.160	 -0.080
          3.586	  0.180	 -0.075
          3.588	  0.170	 -0.080
          3.590	  0.150	 -0.090
          3.592	  0.050	 -0.105
          3.594	 -0.055	 -0.120
          3.596	 -0.055	 -0.130
          3.598	 -0.060	 -0.135
          3.600	  0.000	 -0.135
          3.602	  0.070	 -0.130
          3.604	  0.100	 -0.115
          3.606	  0.205	 -0.100
          3.608	  0.160	 -0.090
          3.610	  0.165	 -0.085
          3.612	  0.050	 -0.090
          3.614	 -0.005	 -0.100
          3.616	 -0.100	 -0.115
          3.618	 -0.105	 -0.135
          3.620	 -0.070	 -0.150
          3.622	  0.045	 -0.160
          3.624	  0.095	 -0.165
          3.626	  0.155	 -0.160
          3.628	  0.120	 -0.145
          3.630	  0.045	 -0.130
          3.632	  0.045	 -0.115
          3.634	 -0.035	 -0.105
          3.636	 -0.010	 -0.100
          3.638	  0.005	 -0.100
          3.640	 -0.015	 -0.105
          3.642	  0.090	 -0.120
          3.644	  0.090	 -0.130
          3.646	  0.080	 -0.145
          3.648	  0.095	 -0.155
          3.650	  0.120	 -0.160
          3.652	  0.040	 -0.165
          3.654	 -0.090	 -0.165
          3.656	 -0.135	 -0.165
          3.658	 -0.090	 -0.160
          3.660	 -0.015	 -0.160
          3.662	  0.050	 -0.160
          3.664	  0.110	 -0.155
          3.666	  0.090	 -0.155
          3.668	  0.140	 -0.155
          3.670	  0.090	 -0.150
          3.672	 -0.060	 -0.150
          3.674	 -0.140	 -0.150
          3.676	 -0.085	 -0.155
          3.678	 -0.065	 -0.155
          3.680	  0.000	 -0.160
          3.682	  0.035	 -0.160
          3.684	  0.135	 -0.165
          3.686	  0.100	 -0.165
          3.688	  0.065	 -0.160
          3.690	  0.060	 -0.160
          3.692	 -0.040	 -0.155
          3.694	 -0.070	 -0.155
          3.696	 -0.105	 -0.150
          3.698	 -0.085	 -0.150
          3.700	 -0.030	 -0.150
          3.702	  0.015	 -0.150
          3.704	  0.125	 -0.150
          3.706	  0.090	 -0.150
          3.708	  0.160	 -0.145
          3.710	  0.105	 -0.140
          3.712	 -0.035	 -0.135
          3.714	 -0.080	 -0.130
          3.716	 -0.040	 -0.125
          3.718	  0.000	 -0.125
          3.720	  0.035	 -0.125
          3.722	  0.025	 -0.135
          3.724	  0.170	 -0.145
          3.726	  0.045	 -0.155
          3.728	  0.080	 -0.165
          3.730	  0.060	 -0.170
          3.732	  0.060	 -0.170
          3.734	 -0.115	 -0.165
          3.736	 -0.085	 -0.155
          3.738	 -0.055	 -0.140
          3.740	  0.030	 -0.125
          3.742	  0.090	 -0.110
          3.744	  0.210	 -0.095
          3.746	  0.165	 -0.090
          3.748	  0.145	 -0.085
          3.750	  0.125	 -0.090
          3.752	  0.060	 -0.090
          3.754	 -0.050	 -0.100
          3.756	 -0.025	 -0.105
          3.758	 -0.035	 -0.105
          3.760	  0.050	 -0.110
          3.762	  0.085	 -0.105
          3.764	  0.175	 -0.095
          3.766	  0.170	 -0.085
          3.768	  0.175	 -0.075
          3.770	  0.125	 -0.060
          3.772	  0.105	 -0.045
          3.774	  0.020	 -0.035
          3.776	  0.065	 -0.030
          3.778	  0.095	 -0.025
          3.780	  0.135	 -0.030
          3.782	  0.195	 -0.035
          3.784	  0.250	 -0.040
          3.786	  0.175	 -0.050
          3.788	  0.170	 -0.060
          3.790	  0.100	 -0.070
          3.792	  0.065	 -0.075
          3.794	  0.010	 -0.080
          3.796	  0.005	 -0.080
          3.798	  0.000	 -0.085
          3.800	  0.020	 -0.090
          3.802	  0.070	 -0.095
          3.804	  0.170	 -0.100
          3.806	  0.170	 -0.105
          3.808	  0.090	 -0.115
          3.810	  0.080	 -0.120
          3.812	  0.005	 -0.120
          3.814	 -0.045	 -0.125
          3.816	  0.015	 -0.125
          3.818	 -0.045	 -0.125
          3.820	  0.030	 -0.125
          3.822	  0.055	 -0.125
          3.824	  0.135	 -0.125
          3.826	  0.165	 -0.130
          3.828	  0.090	 -0.130
          3.830	 -0.015	 -0.135
          3.832	  0.000	 -0.140
          3.834	 -0.020	 -0.140
          3.836	 -0.020	 -0.140
          3.838	 -0.030	 -0.145
          3.840	  0.010	 -0.140
          3.842	  0.040	 -0.140
          3.844	  0.110	 -0.135
          3.846	  0.140	 -0.130
          3.848	  0.085	 -0.120
          3.850	  0.055	 -0.110
          3.852	  0.070	 -0.100
          3.854	 -0.010	 -0.095
          3.856	  0.030	 -0.090
          3.858	  0.040	 -0.090
          3.860	  0.010	 -0.100
          3.862	  0.065	 -0.110
          3.864	  0.095	 -0.125
          3.866	  0.085	 -0.145
          3.868	  0.030	 -0.160
          3.870	  0.015	 -0.170
          3.872	 -0.045	 -0.175
          3.874	 -0.100	 -0.175
          3.876	 -0.080	 -0.165
          3.878	 -0.005	 -0.150
          3.880	  0.055	 -0.135
          3.882	  0.090	 -0.120
          3.884	  0.130	 -0.110
          3.886	  0.120	 -0.110
          3.888	  0.105	 -0.120
          3.890	  0.035	 -0.130
          3.892	 -0.015	 -0.145
          3.894	 -0.145	 -0.160
          3.896	 -0.135	 -0.170
          3.898	 -0.045	 -0.175
          3.900	  0.055	 -0.170
          3.902	  0.125	 -0.160
          3.904	  0.105	 -0.145
          3.906	  0.100	 -0.120
          3.908	  0.100	 -0.090
          3.910	  0.135	 -0.055
          3.912	  0.100	 -0.015
          3.914	  0.135	  0.040
          3.916	  0.170	  0.110
          3.918	  0.320	  0.195
          3.920	  0.470	  0.290
          3.922	  0.560	  0.400
          3.924	  0.815	  0.510
          3.926	  0.960	  0.615
          3.928	  1.010	  0.705
          3.930	  0.985	  0.765
          3.932	  0.955	  0.785
          3.934	  0.810	  0.765
          3.936	  0.740	  0.705
          3.938	  0.650	  0.610
          3.940	  0.615	  0.485
          3.942	  0.640	  0.345
          3.944	  0.520	  0.200
          3.946	  0.235	  0.070
          3.948	  0.105	 -0.040
          3.950	 -0.065	 -0.115
          3.952	 -0.105	 -0.165
          3.954	 -0.130	 -0.180
          3.956	 -0.065	 -0.170
          3.958	  0.010	 -0.145
          3.960	  0.020	 -0.110
          3.962	  0.210	 -0.075
          3.964	  0.225	 -0.050
          3.966	  0.210	 -0.030
          3.968	  0.175	 -0.025
          3.970	  0.105	 -0.035
          3.972	  0.005	 -0.045
          3.974	 -0.035	 -0.060
          3.976	  0.020	 -0.075
          3.978	  0.080	 -0.085
          3.980	  0.065	 -0.085
          3.982	  0.190	 -0.085
          3.984	  0.170	 -0.075
          3.986	  0.100	 -0.060
          3.988	  0.165	 -0.045
          3.990	  0.130	 -0.030
          3.992	  0.065	 -0.015
          3.994	  0.065	 -0.005
          3.996	  0.130	  0.000
          3.998	  0.135	  0.005
          4.000	  0.175	  0.000
          4.002	  0.190	 -0.010
          4.004	  0.165	 -0.015
          4.006	  0.215	 -0.025
          4.008	  0.140	 -0.030
          4.010	  0.115	 -0.035
          4.012	 -0.005	 -0.035
          4.014	  0.115	 -0.030
          4.016	  0.075	 -0.030
          4.018	  0.070	 -0.025
          4.020	  0.180	 -0.020
          4.022	  0.215	 -0.020
          4.024	  0.245	 -0.020
          4.026	  0.170	 -0.020
          4.028	  0.155	 -0.020
          4.030	  0.110	 -0.020
          4.032	  0.055	 -0.015
          4.034	  0.060	 -0.010
          4.036	  0.075	 -0.005
          4.038	  0.255	  0.005
          4.040	  0.140	  0.010
          4.042	  0.180	  0.020
          4.044	  0.370	  0.020
          4.046	  0.230	  0.020
          4.048	  0.150	  0.020
          4.050	  0.165	  0.015
          4.052	  0.040	  0.010
          4.054	  0.060	  0.005
          4.056	  0.090	  0.005
          4.058	  0.115	  0.005
          4.060	  0.165	  0.010
          4.062	  0.270	  0.015
          4.064	  0.270	  0.025
          4.066	  0.200	  0.030
          4.068	  0.210	  0.030
          4.070	  0.205	  0.035
          4.072	  0.110	  0.035
          4.074	  0.110	  0.035
          4.076	  0.130	  0.035
          4.078	  0.175	  0.035
          4.080	  0.255	  0.040
          4.082	  0.345	  0.045
          4.084	  0.280	  0.050
          4.086	  0.250	  0.055
          4.088	  0.180	  0.060
          4.090	  0.185	  0.060
          4.092	  0.120	  0.065
          4.094	  0.105	  0.070
          4.096	  0.095	  0.075
          4.098	  0.230	  0.080
          4.100	  0.260	  0.095
          4.102	  0.435	  0.105
          4.104	  0.360	  0.125
          4.106	  0.345	  0.140
          4.108	  0.345	  0.155
          4.110	  0.260	  0.165
          4.112	  0.195	  0.170
          4.114	  0.230	  0.170
          4.116	  0.275	  0.170
          4.118	  0.300	  0.165
          4.120	  0.370	  0.160
          4.122	  0.385	  0.155
          4.124	  0.370	  0.160
          4.126	  0.325	  0.165
          4.128	  0.320	  0.180
          4.130	  0.335	  0.195
          4.132	  0.275	  0.210
          4.134	  0.290	  0.225
          4.136	  0.345	  0.235
          4.138	  0.395	  0.240
          4.140	  0.450	  0.245
          4.142	  0.500	  0.240
          4.144	  0.515	  0.235
          4.146	  0.420	  0.230
          4.148	  0.365	  0.230
          4.150	  0.355	  0.230
          4.152	  0.245	  0.230
          4.154	  0.240	  0.240
          4.156	  0.405	  0.245
          4.158	  0.415	  0.255
          4.160	  0.470	  0.265
          4.162	  0.530	  0.270
          4.164	  0.555	  0.270
          4.166	  0.480	  0.270
          4.168	  0.365	  0.265
          4.170	  0.325	  0.260
          4.172	  0.265	  0.255
          4.174	  0.265	  0.245
          4.176	  0.295	  0.240
          4.178	  0.415	  0.235
          4.180	  0.445	  0.230
          4.182	  0.475	  0.225
          4.184	  0.425	  0.215
          4.186	  0.380	  0.205
          4.188	  0.305	  0.190
          4.190	  0.215	  0.170
          4.192	  0.150	  0.150
          4.194	  0.145	  0.130
          4.196	  0.245	  0.110
          4.198	  0.240	  0.095
          4.200	  0.250	  0.085
          4.202	  0.285	  0.075
          4.204	  0.360	  0.075
          4.206	  0.290	  0.075
          4.208	  0.195	  0.075
          4.210	  0.115	  0.070
          4.212	  0.015	  0.060
          4.214	  0.080	  0.050
          4.216	  0.100	  0.030
          4.218	  0.210	  0.015
          4.220	  0.260	  0.000
          4.222	  0.250	 -0.015
          4.224	  0.180	 -0.020
          4.226	  0.115	 -0.020
          4.228	  0.140	 -0.015
          4.230	  0.085	 -0.010
          4.232	  0.020	 -0.010
          4.234	  0.020	 -0.010
          4.236	  0.080	 -0.015
          4.238	  0.115	 -0.025
          4.240	  0.140	 -0.040
          4.242	  0.270	 -0.055
          4.244	  0.135	 -0.070
          4.246	  0.105	 -0.080
          4.248	  0.045	 -0.085
          4.250	 -0.050	 -0.085
          4.252	 -0.020	 -0.080
          4.254	  0.030	 -0.070
          4.256	  0.030	 -0.065
          4.258	  0.075	 -0.055
          4.260	  0.100	 -0.050
          4.262	  0.185	 -0.050
          4.264	  0.155	 -0.045
          4.266	  0.110	 -0.045
          4.268	  0.095	 -0.045
          4.270	  0.050	 -0.045
          4.272	  0.020	 -0.045
          4.274	 -0.025	 -0.045
          4.276	  0.070	 -0.040
          4.278	  0.055	 -0.040
          4.280	  0.165	 -0.040
          4.282	  0.190	 -0.040
          4.284	  0.185	 -0.040
          4.286	  0.115	 -0.040
          4.288	  0.100	 -0.040
          4.290	 -0.010	 -0.040
          4.292	  0.035	 -0.040
          4.294	  0.055	 -0.035
          4.296	  0.045	 -0.035
          4.298	  0.085	 -0.035
          4.300	  0.235	 -0.035
          4.302	  0.165	 -0.040
          4.304	  0.160	 -0.045
          4.306	  0.110	 -0.050
          4.308	  0.070	 -0.050
          4.310	  0.035	 -0.055
          4.312	  0.000	 -0.055
          4.314	  0.000	 -0.055
          4.316	  0.030	 -0.050
          4.318	  0.130	 -0.050
          4.320	  0.195	 -0.045
          4.322	  0.190	 -0.045
          4.324	  0.180	 -0.040
          4.326	  0.110	 -0.035
          4.328	  0.120	 -0.030
          4.330	 -0.015	 -0.025
          4.332	  0.010	 -0.020
          4.334	  0.075	 -0.015
          4.336	  0.150	 -0.010
          4.338	  0.175	 -0.010
          4.340	  0.230	 -0.015
          4.342	  0.225	 -0.020
          4.344	  0.105	 -0.025
          4.346	  0.100	 -0.035
          4.348	  0.060	 -0.040
          4.350	  0.015	 -0.045
          4.352	 -0.005	 -0.040
          4.354	  0.035	 -0.035
          4.356	  0.115	 -0.030
          4.358	  0.155	 -0.020
          4.360	  0.230	 -0.010
          4.362	  0.250	 -0.005
          4.364	  0.230	 -0.005
          4.366	  0.135	 -0.005
          4.368	  0.120	 -0.010
          4.370	 -0.020	 -0.020
          4.372	 -0.035	 -0.025
          4.374	  0.075	 -0.025
          4.376	  0.155	 -0.025
          4.378	  0.135	 -0.020
          4.380	  0.265	 -0.015
          4.382	  0.225	 -0.005
          4.384	  0.150	  0.005
          4.386	  0.115	  0.010
          4.388	  0.110	  0.015
          4.390	  0.075	  0.010
          4.392	  0.050	  0.005
          4.394	  0.060	 -0.005
          4.396	  0.115	 -0.015
          4.398	  0.150	 -0.030
          4.400	  0.225	 -0.040
          4.402	  0.105	 -0.050
          4.404	  0.135	 -0.055
          4.406	  0.050	 -0.060
          4.408	  0.095	 -0.060
          4.410	  0.005	 -0.065
          4.412	 -0.010	 -0.065
          4.414	  0.020	 -0.065
          4.416	  0.005	 -0.065
          4.418	  0.055	 -0.065
          4.420	  0.185	 -0.065
          4.422	  0.200	 -0.060
          4.424	  0.160	 -0.055
          4.426	  0.110	 -0.045
          4.428	  0.060	 -0.035
          4.430	  0.000	 -0.025
          4.432	  0.040	 -0.015
          4.434	  0.070	 -0.015
          4.436	  0.200	 -0.015
          4.438	  0.145	 -0.015
          4.440	  0.170	 -0.020
          4.442	  0.170	 -0.025
          4.444	  0.170	 -0.030
          4.446	  0.110	 -0.030
          4.448	  0.040	 -0.035
          4.450	  0.020	 -0.035
          4.452	  0.005	 -0.035
          4.454	  0.010	 -0.035
          4.456	  0.050	 -0.040
          4.458	  0.180	 -0.040
          4.460	  0.160	 -0.045
          4.462	  0.185	 -0.050
          4.464	  0.130	 -0.050
          4.466	  0.035	 -0.055
          4.468	  0.055	 -0.060
          4.470	 -0.010	 -0.060
          4.472	 -0.035	 -0.065
          4.474	 -0.010	 -0.065
          4.476	  0.070	 -0.070
          4.478	  0.160	 -0.070
          4.480	  0.140	 -0.075
          4.482	  0.170	 -0.070
          4.484	  0.145	 -0.065
          4.486	  0.105	 -0.055
          4.488	  0.010	 -0.040
          4.490	  0.025	 -0.030
          4.492	  0.020	 -0.020
          4.494	  0.110	 -0.010
          4.496	  0.175	 -0.010
          4.498	  0.125	 -0.015
          4.500	  0.230	 -0.030
          4.502	  0.170	 -0.040
          4.504	  0.085	 -0.055
          4.506	  0.065	 -0.070
          4.508	 -0.020	 -0.075
          4.510	 -0.060	 -0.080
          4.512	 -0.025	 -0.075
          4.514	  0.050	 -0.065
          4.516	  0.145	 -0.055
          4.518	  0.160	 -0.045
          4.520	  0.195	 -0.035
          4.522	  0.215	 -0.030
          4.524	  0.145	 -0.030
          4.526	  0.080	 -0.040
          4.528	 -0.015	 -0.050
          4.530	 -0.095	 -0.060
          4.532	 -0.050	 -0.070
          4.534	  0.065	 -0.080
          4.536	  0.025	 -0.090
          4.538	  0.160	 -0.090
          4.540	  0.235	 -0.085
          4.542	  0.155	 -0.080
          4.544	  0.040	 -0.075
          4.546	  0.015	 -0.070
          4.548	 -0.005	 -0.065
          4.550	 -0.080	 -0.070
          4.552	 -0.100	 -0.075
          4.554	  0.030	 -0.080
          4.556	  0.125	 -0.085
          4.558	  0.190	 -0.090
          4.560	  0.125	 -0.095
          4.562	  0.140	 -0.090
          4.564	  0.080	 -0.085
          4.566	  0.015	 -0.075
          4.568	 -0.025	 -0.065
          4.570	  0.010	 -0.055
          4.572	 -0.025	 -0.050
          4.574	  0.055	 -0.050
          4.576	  0.155	 -0.055
          4.578	  0.250	 -0.055
          4.580	  0.140	 -0.060
          4.582	  0.115	 -0.060
          4.584	  0.085	 -0.055
          4.586	  0.085	 -0.050
          4.588	  0.015	 -0.050
          4.590	 -0.040	 -0.050
          4.592	  0.005	 -0.050
          4.594	  0.005	 -0.055
          4.596	  0.065	 -0.065
          4.598	  0.160	 -0.070
          4.600	  0.155	 -0.075
          4.602	  0.115	 -0.075
          4.604	  0.090	 -0.065
          4.606	  0.020	 -0.055
          4.608	  0.030	 -0.035
          4.610	  0.060	 -0.020
          4.612	  0.075	 -0.005
          4.614	  0.105	  0.000
          4.616	  0.130	 -0.005
          4.618	  0.225	 -0.015
          4.620	  0.195	 -0.035
          4.622	  0.085	 -0.055
          4.624	  0.050	 -0.070
          4.626	 -0.010	 -0.080
          4.628	 -0.015	 -0.075
          4.630	  0.020	 -0.065
          4.632	  0.035	 -0.050
          4.634	  0.115	 -0.030
          4.636	  0.125	 -0.010
          4.638	  0.215	  0.005
          4.640	  0.200	  0.015
          4.642	  0.195	  0.015
          4.644	  0.130	  0.010
          4.646	  0.155	  0.005
          4.648	  0.055	 -0.005
          4.650	  0.010	 -0.010
          4.652	  0.065	 -0.015
          4.654	  0.110	 -0.020
          4.656	  0.090	 -0.020
          4.658	  0.210	 -0.025
          4.660	  0.210	 -0.025
          4.662	  0.115	 -0.030
          4.664	  0.125	 -0.035
          4.666	  0.055	 -0.045
          4.668	 -0.045	 -0.050
          4.670	 -0.050	 -0.055
          4.672	  0.050	 -0.060
          4.674	  0.095	 -0.060
          4.676	  0.060	 -0.055
          4.678	  0.175	 -0.050
          4.680	  0.175	 -0.045
          4.682	  0.135	 -0.040
          4.684	  0.045	 -0.040
          4.686	  0.055	 -0.040
          4.688	 -0.020	 -0.045
          4.690	 -0.010	 -0.045
          4.692	 -0.010	 -0.050
          4.694	  0.045	 -0.050
          4.696	  0.080	 -0.055
          4.698	  0.190	 -0.055
          4.700	  0.165	 -0.055
          4.702	  0.125	 -0.060
          4.704	  0.080	 -0.065
          4.706	  0.030	 -0.070
          4.708	 -0.075	 -0.075
          4.710	 -0.085	 -0.080
          4.712	 -0.025	 -0.090
          4.714	  0.010	 -0.090
          4.716	  0.050	 -0.090
          4.718	  0.150	 -0.090
          4.720	  0.145	 -0.085
          4.722	  0.115	 -0.075
          4.724	  0.065	 -0.065
          4.726	  0.055	 -0.060
          4.728	 -0.010	 -0.060
          4.730	  0.000	 -0.060
          4.732	 -0.040	 -0.070
          4.734	 -0.005	 -0.080
          4.736	  0.070	 -0.095
          4.738	  0.130	 -0.105
          4.740	  0.165	 -0.115
          4.742	  0.080	 -0.120
          4.744	  0.040	 -0.115
          4.746	 -0.015	 -0.105
          4.748	 -0.060	 -0.090
          4.750	 -0.045	 -0.075
          4.752	  0.015	 -0.065
          4.754	  0.045	 -0.060
          4.756	  0.095	 -0.065
          4.758	  0.185	 -0.075
          4.760	  0.175	 -0.090
          4.762	  0.085	 -0.110
          4.764	 -0.065	 -0.125
          4.766	 -0.075	 -0.135
          4.768	 -0.095	 -0.140
          4.770	 -0.060	 -0.135
          4.772	  0.005	 -0.115
          4.774	  0.000	 -0.095
          4.776	  0.025	 -0.065
          4.778	  0.175	 -0.030
          4.780	  0.300	  0.015
          4.782	  0.285	  0.065
          4.784	  0.280	  0.125
          4.786	  0.265	  0.205
          4.788	  0.340	  0.295
          4.790	  0.465	  0.400
          4.792	  0.575	  0.510
          4.794	  0.760	  0.615
          4.796	  0.955	  0.710
          4.798	  1.090	  0.775
          4.800	  1.060	  0.805
          4.802	  1.000	  0.800
          4.804	  0.865	  0.750
          4.806	  0.685	  0.665
          4.808	  0.540	  0.555
          4.810	  0.450	  0.435
          4.812	  0.415	  0.310
          4.814	  0.335	  0.195
          4.816	  0.250	  0.095
          4.818	  0.170	  0.015
          4.820	  0.140	 -0.040
          4.822	  0.060	 -0.075
          4.824	 -0.025	 -0.095
          4.826	 -0.070	 -0.100
          4.828	 -0.035	 -0.095
          4.830	 -0.095	 -0.085
          4.832	  0.065	 -0.070
          4.834	  0.110	 -0.055
          4.836	  0.200	 -0.045
          4.838	  0.180	 -0.040
          4.840	  0.180	 -0.035
          4.842	  0.080	 -0.040
          4.844	  0.100	 -0.045
          4.846	 -0.020	 -0.050
          4.848	 -0.010	 -0.060
          4.850	 -0.070	 -0.065
          4.852	  0.065	 -0.070
          4.854	  0.130	 -0.070
          4.856	  0.145	 -0.065
          4.858	  0.115	 -0.060
          4.860	  0.185	 -0.055
          4.862	  0.070	 -0.050
          4.864	  0.065	 -0.045
          4.866	 -0.015	 -0.045
          4.868	 -0.005	 -0.045
          4.870	  0.035	 -0.040
          4.872	  0.030	 -0.040
          4.874	  0.130	 -0.040
          4.876	  0.155	 -0.030
          4.878	  0.225	 -0.025
          4.880	  0.185	 -0.020
          4.882	  0.155	 -0.015
          4.884	  0.115	 -0.010
          4.886	  0.060	 -0.010
          4.888	 -0.005	 -0.015
          4.890	  0.015	 -0.020
          4.892	  0.030	 -0.025
          4.894	  0.110	 -0.030
          4.896	  0.270	 -0.030
          4.898	  0.255	 -0.025
          4.900	  0.165	 -0.020
          4.902	  0.090	 -0.015
          4.904	  0.055	 -0.005
          4.906	 -0.015	  0.000
          4.908	  0.050	  0.000
          4.910	  0.100	 -0.005
          4.912	  0.160	 -0.015
          4.914	  0.110	 -0.030
          4.916	  0.225	 -0.045
          4.918	  0.130	 -0.055
          4.920	  0.130	 -0.065
          4.922	  0.090	 -0.065
          4.924	 -0.010	 -0.060
          4.926	 -0.070	 -0.050
          4.928	  0.045	 -0.035
          4.930	  0.030	 -0.020
          4.932	  0.070	 -0.005
          4.934	  0.245	  0.010
          4.936	  0.280	  0.020
          4.938	  0.210	  0.030
          4.940	  0.200	  0.035
          4.942	  0.160	  0.040
          4.944	  0.195	  0.040
          4.946	  0.145	  0.045
          4.948	  0.075	  0.045
          4.950	  0.085	  0.050
          4.952	  0.175	  0.050
          4.954	  0.210	  0.050
          4.956	  0.320	  0.050
          4.958	  0.245	  0.050
          4.960	  0.235	  0.050
          4.962	  0.120	  0.055
          4.964	  0.240	  0.060
          4.966	  0.130	  0.075
          4.968	  0.140	  0.090
          4.970	  0.155	  0.110
          4.972	  0.255	  0.130
          4.974	  0.285	  0.150
          4.976	  0.400	  0.160
          4.978	  0.435	  0.170
          4.980	  0.380	  0.170
          4.982	  0.355	  0.165
          4.984	  0.235	  0.155
          4.986	  0.140	  0.150
          4.988	  0.170	  0.145
          4.990	  0.245	  0.150
          4.992	  0.310	  0.160
          4.994	  0.290	  0.175
          4.996	  0.435	  0.200
          4.998	  0.525	  0.220
          5.000	  0.455	  0.245
          5.002	  0.430	  0.265
          5.004	  0.355	  0.280
          5.006	  0.320	  0.285
          5.008	  0.305	  0.290
          5.010	  0.345	  0.285
          5.012	  0.395	  0.285
          5.014	  0.470	  0.280
          5.016	  0.545	  0.280
          5.018	  0.580	  0.285
          5.020	  0.550	  0.290
          5.022	  0.385	  0.295
          5.024	  0.315	  0.300
          5.026	  0.380	  0.305
          5.028	  0.375	  0.305
          5.030	  0.430	  0.305
          5.032	  0.405	  0.300
          5.034	  0.430	  0.295
          5.036	  0.535	  0.290
          5.038	  0.525	  0.290
          5.040	  0.520	  0.290
          5.042	  0.440	  0.290
          5.044	  0.375	  0.285
          5.046	  0.285	  0.285
          5.048	  0.305	  0.275
          5.050	  0.340	  0.265
          5.052	  0.410	  0.250
          5.054	  0.450	  0.230
          5.056	  0.430	  0.215
          5.058	  0.430	  0.195
          5.060	  0.355	  0.180
          5.062	  0.255	  0.170
          5.064	  0.240	  0.160
          5.066	  0.215	  0.155
          5.068	  0.205	  0.150
          5.070	  0.275	  0.145
          5.072	  0.265	  0.135
          5.074	  0.285	  0.125
          5.076	  0.345	  0.110
          5.078	  0.345	  0.095
          5.080	  0.275	  0.080
          5.082	  0.225	  0.070
          5.084	  0.125	  0.055
          5.086	  0.090	  0.045
          5.088	  0.060	  0.035
          5.090	  0.110	  0.025
          5.092	  0.160	  0.020
          5.094	  0.225	  0.010
          5.096	  0.215	  0.000
          5.098	  0.260	 -0.010
          5.100	  0.165	 -0.020
          5.102	  0.115	 -0.025
          5.104	  0.015	 -0.025
          5.106	  0.005	 -0.025
          5.108	  0.005	 -0.020
          5.110	  0.100	 -0.015
          5.112	  0.155	 -0.010
          5.114	  0.210	 -0.005
          5.116	  0.230	 -0.010
          5.118	  0.205	 -0.010
          5.120	  0.175	 -0.020
          5.122	  0.080	 -0.025
          5.124	  0.015	 -0.035
          5.126	 -0.050	 -0.040
          5.128	  0.005	 -0.040
          5.130	  0.090	 -0.035
          5.132	  0.155	 -0.030
          5.134	  0.220	 -0.030
          5.136	  0.220	 -0.025
          5.138	  0.185	 -0.025
          5.140	  0.130	 -0.030
          5.142	  0.115	 -0.040
          5.144	 -0.020	 -0.055
          5.146	 -0.020	 -0.065
          5.148	 -0.045	 -0.075
          5.150	  0.095	 -0.080
          5.152	  0.010	 -0.080
          5.154	  0.170	 -0.075
          5.156	  0.240	 -0.065
          5.158	  0.150	 -0.050
          5.160	  0.085	 -0.035
          5.162	  0.130	 -0.025
          5.164	  0.005	 -0.015
          5.166	  0.060	 -0.005
          5.168	  0.065	 -0.005
          5.170	  0.070	 -0.010
          5.172	  0.125	 -0.020
          5.174	  0.230	 -0.030
          5.176	  0.175	 -0.040
          5.178	  0.155	 -0.050
          5.180	  0.115	 -0.060
          5.182	  0.065	 -0.060
          5.184	  0.015	 -0.060
          5.186	  0.010	 -0.055
          5.188	  0.040	 -0.045
          5.190	  0.140	 -0.035
          5.192	  0.105	 -0.030
          5.194	  0.195	 -0.020
          5.196	  0.205	 -0.015
          5.198	  0.180	 -0.010
          5.200	  0.165	 -0.010
          5.202	  0.105	 -0.015
          5.204	  0.025	 -0.020
          5.206	  0.030	 -0.030
          5.208	  0.015	 -0.035
          5.210	  0.110	 -0.045
          5.212	  0.100	 -0.050
          5.214	  0.220	 -0.050
          5.216	  0.180	 -0.045
          5.218	  0.180	 -0.040
          5.220	  0.135	 -0.035
          5.222	  0.090	 -0.025
          5.224	  0.055	 -0.015
          5.226	  0.060	 -0.005
          5.228	  0.085	  0.000
          5.230	  0.185	  0.005
          5.232	  0.180	  0.005
          5.234	  0.195	  0.000
          5.236	  0.235	  0.000
          5.238	  0.215	 -0.005
          5.240	  0.130	 -0.005
          5.242	  0.150	 -0.005
          5.244	  0.045	  0.000
          5.246	  0.035	  0.005
          5.248	  0.035	  0.005
          5.250	  0.165	  0.005
          5.252	  0.195	  0.005
          5.254	  0.235	  0.000
          5.256	  0.235	 -0.010
          5.258	  0.175	 -0.020
          5.260	  0.135	 -0.025
          5.262	  0.045	 -0.035
          5.264	  0.010	 -0.035
          5.266	  0.075	 -0.030
          5.268	  0.115	 -0.025
          5.270	  0.120	 -0.015
          5.272	  0.160	 -0.010
          5.274	  0.270	 -0.005
          5.276	  0.200	 -0.010
          5.278	  0.195	 -0.015
          5.280	  0.105	 -0.030
          5.282	  0.080	 -0.040
          5.284	 -0.045	 -0.055
          5.286	  0.035	 -0.060
          5.288	  0.080	 -0.065
          5.290	  0.065	 -0.060
          5.292	  0.115	 -0.055
          5.294	  0.215	 -0.045
          5.296	  0.240	 -0.040
          5.298	  0.170	 -0.035
          5.300	  0.055	 -0.035
          5.302	  0.060	 -0.040
          5.304	  0.055	 -0.050
          5.306	 -0.015	 -0.060
          5.308	  0.030	 -0.075
          5.310	  0.100	 -0.080
          5.312	  0.085	 -0.085
          5.314	  0.155	 -0.085
          5.316	  0.170	 -0.085
          5.318	  0.125	 -0.085
          5.320	  0.050	 -0.090
          5.322	  0.030	 -0.095
          5.324	 -0.130	 -0.105
          5.326	 -0.070	 -0.115
          5.328	 -0.005	 -0.125
          5.330	  0.095	 -0.135
          5.332	  0.080	 -0.135
          5.334	  0.060	 -0.135
          5.336	  0.125	 -0.130
          5.338	  0.065	 -0.125
          5.340	  0.000	 -0.120
          5.342	  0.040	 -0.115
          5.344	 -0.015	 -0.115
          5.346	 -0.110	 -0.120
          5.348	 -0.075	 -0.130
          5.350	  0.000	 -0.140
          5.352	  0.055	 -0.150
          5.354	  0.065	 -0.160
          5.356	  0.000	 -0.170
          5.358	  0.020	 -0.175
          5.360	  0.020	 -0.180
          5.362	  0.015	 -0.185
          5.364	 -0.125	 -0.195
          5.366	 -0.195	 -0.200
          5.368	 -0.145	 -0.210
          5.370	 -0.085	 -0.220
          5.372	 -0.005	 -0.230
          5.374	  0.040	 -0.240
          5.376	  0.005	 -0.245
          5.378	 -0.065	 -0.245
          5.380	 -0.110	 -0.240
          5.382	 -0.175	 -0.240
          5.384	 -0.165	 -0.235
          5.386	 -0.195	 -0.235
          5.388	 -0.165	 -0.240
          5.390	 -0.130	 -0.250
          5.392	 -0.040	 -0.260
          5.394	  0.015	 -0.270
          5.396	 -0.040	 -0.280
          5.398	 -0.090	 -0.285
          5.400	 -0.170	 -0.285
          5.402	 -0.220	 -0.280
          5.404	 -0.215	 -0.270
          5.406	 -0.175	 -0.260
          5.408	 -0.105	 -0.250
          5.410	 -0.095	 -0.240
          5.412	  0.005	 -0.235
          5.414	  0.020	 -0.240
          5.416	 -0.020	 -0.245
          5.418	 -0.070	 -0.255
          5.420	 -0.160	 -0.265
          5.422	 -0.285	 -0.275
          5.424	 -0.265	 -0.280
          5.426	 -0.180	 -0.275
          5.428	 -0.100	 -0.265
          5.430	 -0.045	 -0.250
          5.432	  0.030	 -0.230
          5.434	  0.075	 -0.210
          5.436	  0.055	 -0.190
          5.438	  0.005	 -0.170
          5.440	 -0.005	 -0.160
          5.442	 -0.140	 -0.150
          5.444	 -0.085	 -0.145
          5.446	 -0.050	 -0.140
          5.448	 -0.050	 -0.140
          5.450	  0.010	 -0.135
          5.452	  0.125	 -0.130
          5.454	  0.195	 -0.120
          5.456	  0.120	 -0.105
          5.458	  0.030	 -0.090
          5.460	  0.045	 -0.080
          5.462	  0.025	 -0.065
          5.464	 -0.015	 -0.060
          5.466	 -0.035	 -0.055
          5.468	  0.085	 -0.055
          5.470	  0.110	 -0.060
          5.472	  0.145	 -0.070
          5.474	  0.170	 -0.075
          5.476	  0.160	 -0.080
          5.478	  0.145	 -0.080
          5.480	  0.115	 -0.070
          5.482	 -0.040	 -0.060
          5.484	  0.010	 -0.045
          5.486	  0.040	 -0.030
          5.488	  0.135	 -0.015
          5.490	  0.060	 -0.010
          5.492	  0.295	 -0.010
          5.494	  0.300	 -0.015
          5.496	  0.165	 -0.030
          5.498	  0.060	 -0.045
          5.500	  0.040	 -0.060
          5.502	 -0.075	 -0.075
          5.504	 -0.010	 -0.080
          5.506	  0.055	 -0.080
          5.508	  0.130	 -0.070
          5.510	  0.100	 -0.065
          5.512	  0.190	 -0.055
          5.514	  0.205	 -0.055
          5.516	  0.155	 -0.060
          5.518	  0.075	 -0.070
          5.520	 -0.010	 -0.090
          5.522	 -0.165	 -0.105
          5.524	 -0.070	 -0.120
          5.526	 -0.090	 -0.130
          5.528	  0.050	 -0.135
          5.530	  0.105	 -0.130
          5.532	  0.180	 -0.115
          5.534	  0.150	 -0.100
          5.536	  0.115	 -0.085
          5.538	  0.070	 -0.075
          5.540	  0.020	 -0.065
          5.542	 -0.030	 -0.065
          5.544	  0.000	 -0.070
          5.546	  0.030	 -0.075
          5.548	  0.030	 -0.085
          5.550	  0.080	 -0.090
          5.552	  0.150	 -0.090
          5.554	  0.135	 -0.090
          5.556	  0.075	 -0.085
          5.558	  0.015	 -0.085
          5.560	  0.075	 -0.085
          5.562	 -0.030	 -0.085
          5.564	 -0.045	 -0.090
          5.566	 -0.030	 -0.095
          5.568	  0.050	 -0.095
          5.570	  0.060	 -0.100
          5.572	  0.145	 -0.100
          5.574	  0.180	 -0.095
          5.576	  0.140	 -0.090
          5.578	  0.020	 -0.085
          5.580	  0.035	 -0.080
          5.582	 -0.040	 -0.075
          5.584	 -0.050	 -0.080
          5.586	 -0.005	 -0.085
          5.588	  0.025	 -0.095
          5.590	  0.075	 -0.105
          5.592	  0.145	 -0.115
          5.594	  0.115	 -0.120
          5.596	  0.085	 -0.125
          5.598	 -0.025	 -0.120
          5.600	  0.020	 -0.120
          5.602	 -0.020	 -0.115
          5.604	 -0.055	 -0.110
          5.606	 -0.020	 -0.110
          5.608	  0.055	 -0.110
          5.610	  0.020	 -0.110
          5.612	  0.135	 -0.110
          5.614	  0.125	 -0.105
          5.616	  0.155	 -0.095
          5.618	  0.045	 -0.080
          5.620	 -0.055	 -0.050
          5.622	  0.055	 -0.005
          5.624	  0.060	  0.050
          5.626	  0.255	  0.120
          5.628	  0.420	  0.205
          5.630	  0.515	  0.300
          5.632	  0.655	  0.400
          5.634	  0.780	  0.500
          5.636	  0.780	  0.600
          5.638	  0.875	  0.680
          5.640	  0.900	  0.740
          5.642	  0.895	  0.765
          5.644	  0.775	  0.760
          5.646	  0.785	  0.710
          5.648	  0.740	  0.630
          5.650	  0.710	  0.520
          5.652	  0.695	  0.390
          5.654	  0.515	  0.250
          5.656	  0.245	  0.120
          5.658	  0.065	  0.005
          5.660	 -0.070	 -0.080
          5.662	 -0.190	 -0.145
          5.664	 -0.135	 -0.175
          5.666	 -0.050	 -0.185
          5.668	  0.035	 -0.170
          5.670	  0.115	 -0.145
          5.672	  0.200	 -0.110
          5.674	  0.185	 -0.080
          5.676	  0.050	 -0.055
          5.678	  0.080	 -0.040
          5.680	  0.060	 -0.030
          5.682	  0.075	 -0.030
          5.684	 -0.020	 -0.035
          5.686	  0.045	 -0.045
          5.688	  0.145	 -0.055
          5.690	  0.130	 -0.060
          5.692	  0.205	 -0.060
          5.694	  0.245	 -0.060
          5.696	  0.140	 -0.050
          5.698	  0.085	 -0.035
          5.700	  0.020	 -0.020
          5.702	 -0.035	 -0.005
          5.704	  0.080	  0.005
          5.706	  0.130	  0.010
          5.708	  0.180	  0.005
          5.710	  0.220	 -0.005
          5.712	  0.170	 -0.025
          5.714	  0.120	 -0.040
          5.716	  0.150	 -0.055
          5.718	  0.065	 -0.065
          5.720	 -0.055	 -0.065
          5.722	  0.020	 -0.060
          5.724	  0.030	 -0.050
          5.726	  0.080	 -0.035
          5.728	  0.050	 -0.020
          5.730	  0.240	 -0.015
          5.732	  0.255	 -0.010
          5.734	  0.220	 -0.015
          5.736	  0.110	 -0.025
          5.738	  0.085	 -0.035
          5.740	 -0.015	 -0.045
          5.742	 -0.025	 -0.055
          5.744	  0.030	 -0.055
          5.746	  0.100	 -0.050
          5.748	  0.170	 -0.040
          5.750	  0.210	 -0.025
          5.752	  0.255	 -0.010
          5.754	  0.200	  0.000
          5.756	  0.100	  0.010
          5.758	  0.125	  0.015
          5.760	  0.020	  0.015
          5.762	  0.075	  0.010
          5.764	  0.065	  0.005
          5.766	  0.160	  0.005
          5.768	  0.185	  0.000
          5.770	  0.290	  0.000
          5.772	  0.225	  0.005
          5.774	  0.175	  0.010
          5.776	  0.195	  0.020
          5.778	  0.195	  0.030
          5.780	  0.060	  0.035
          5.782	  0.070	  0.045
          5.784	  0.120	  0.050
          5.786	  0.190	  0.055
          5.788	  0.190	  0.055
          5.790	  0.335	  0.055
          5.792	  0.320	  0.055
          5.794	  0.215	  0.050
          5.796	  0.125	  0.050
          5.798	  0.150	  0.050
          5.800	  0.080	  0.050
          5.802	  0.130	  0.055
          5.804	  0.115	  0.060
          5.806	  0.160	  0.075
          5.808	  0.285	  0.085
          5.810	  0.440	  0.100
          5.812	  0.340	  0.110
          5.814	  0.280	  0.120
          5.816	  0.220	  0.130
          5.818	  0.235	  0.135
          5.820	  0.180	  0.140
          5.822	  0.180	  0.145
          5.824	  0.245	  0.150
          5.826	  0.295	  0.165
          5.828	  0.365	  0.175
          5.830	  0.435	  0.195
          5.832	  0.410	  0.210
          5.834	  0.490	  0.225
          5.836	  0.425	  0.240
          5.838	  0.340	  0.250
          5.840	  0.240	  0.260
          5.842	  0.305	  0.265
          5.844	  0.350	  0.265
          5.846	  0.365	  0.265
          5.848	  0.385	  0.270
          5.850	  0.425	  0.270
          5.852	  0.555	  0.280
          5.854	  0.555	  0.285
          5.856	  0.520	  0.290
          5.858	  0.435	  0.300
          5.860	  0.330	  0.305
          5.862	  0.305	  0.310
          5.864	  0.320	  0.315
          5.866	  0.390	  0.315
          5.868	  0.535	  0.315
          5.870	  0.585	  0.315
          5.872	  0.555	  0.315
          5.874	  0.490	  0.310
          5.876	  0.455	  0.305
          5.878	  0.435	  0.300
          5.880	  0.305	  0.295
          5.882	  0.335	  0.285
          5.884	  0.385	  0.275
          5.886	  0.460	  0.265
          5.888	  0.410	  0.260
          5.890	  0.400	  0.255
          5.892	  0.470	  0.250
          5.894	  0.490	  0.240
          5.896	  0.380	  0.235
          5.898	  0.330	  0.230
          5.900	  0.260	  0.220
          5.902	  0.305	  0.205
          5.904	  0.210	  0.195
          5.906	  0.310	  0.180
          5.908	  0.340	  0.165
          5.910	  0.360	  0.150
          5.912	  0.355	  0.135
          5.914	  0.345	  0.120
          5.916	  0.245	  0.105
          5.918	  0.160	  0.090
          5.920	  0.100	  0.075
          5.922	  0.095	  0.065
          5.924	  0.120	  0.050
          5.926	  0.180	  0.040
          5.928	  0.200	  0.035
          5.930	  0.265	  0.030
          5.932	  0.280	  0.030
          5.934	  0.280	  0.030
          5.936	  0.205	  0.030
          5.938	  0.090	  0.030
          5.940	  0.025	  0.030
          5.942	  0.025	  0.020
          5.944	  0.035	  0.010
          5.946	  0.120	 -0.005
          5.948	  0.160	 -0.020
          5.950	  0.230	 -0.035
          5.952	  0.245	 -0.040
          5.954	  0.160	 -0.045
          5.956	  0.090	 -0.040
          5.958	  0.095	 -0.035
          5.960	 -0.060	 -0.025
          5.962	 -0.080	 -0.015
          5.964	  0.070	 -0.005
          5.966	  0.170	 -0.005
          5.968	  0.195	 -0.010
          5.970	  0.235	 -0.020
          5.972	  0.225	 -0.030
          5.974	  0.190	 -0.040
          5.976	  0.020	 -0.045
          5.978	  0.020	 -0.045
          5.980	 -0.005	 -0.045
          5.982	 -0.040	 -0.040
          5.984	  0.070	 -0.035
          5.986	  0.120	 -0.030
          5.988	  0.150	 -0.035
          5.990	  0.170	 -0.040
          5.992	  0.220	 -0.050
          5.994	  0.075	 -0.065
          5.996	  0.040	 -0.070
          5.998	  0.010	 -0.070
          6.000	  0.020	 -0.065
          6.002	  0.000	 -0.055
          6.004	  0.065	 -0.040
          6.006	  0.055	 -0.020
          6.008	  0.190	 -0.010
          6.010	  0.300	  0.000
          6.012	  0.220	  0.000
          6.014	  0.135	 -0.005
          6.016	  0.055	 -0.015
          6.018	 -0.005	 -0.025
          6.020	 -0.015	 -0.035
          6.022	  0.060	 -0.035
          6.024	  0.100	 -0.030
          6.026	  0.165	 -0.025
          6.028	  0.155	 -0.015
          6.030	  0.215	 -0.005
          6.032	  0.190	 -0.005
          6.034	  0.195	 -0.010
          6.036	  0.100	 -0.015
          6.038	 -0.030	 -0.030
          6.040	 -0.025	 -0.035
          6.042	  0.025	 -0.040
          6.044	  0.095	 -0.040
          6.046	  0.170	 -0.035
          6.048	  0.200	 -0.025
          6.050	  0.255	 -0.015
          6.052	  0.185	 -0.005
          6.054	  0.100	  0.000
          6.056	  0.090	 -0.005
          6.058	  0.005	 -0.020
          6.060	 -0.040	 -0.035
          6.062	 -0.025	 -0.050
          6.064	  0.005	 -0.065
          6.066	  0.100	 -0.070
          6.068	  0.215	 -0.065
          6.070	  0.215	 -0.050
          6.072	  0.205	 -0.030
          6.074	  0.160	 -0.005
          6.076	  0.115	  0.015
          6.078	  0.095	  0.025
          6.080	  0.070	  0.025
          6.082	  0.020	  0.020
          6.084	  0.065	  0.005
          6.086	  0.080	 -0.015
          6.088	  0.195	 -0.035
          6.090	  0.170	 -0.050
          6.092	  0.210	 -0.060
          6.094	  0.115	 -0.055
          6.096	  0.055	 -0.045
          6.098	 -0.015	 -0.030
          6.100	  0.015	 -0.015
          6.102	  0.070	  0.000
          6.104	  0.125	  0.005
          6.106	  0.190	  0.000
          6.108	  0.275	 -0.010
          6.110	  0.175	 -0.030
          6.112	  0.190	 -0.050
          6.114	  0.045	 -0.065
          6.116	 -0.010	 -0.075
          6.118	 -0.045	 -0.080
          6.120	  0.005	 -0.080
          6.122	  0.035	 -0.070
          6.124	  0.025	 -0.060
          6.126	  0.060	 -0.050
          6.128	  0.175	 -0.045
          6.130	  0.180	 -0.045
          6.132	  0.165	 -0.045
          6.134	  0.095	 -0.050
          6.136	  0.075	 -0.055
          6.138	 -0.045	 -0.055
          6.140	 -0.055	 -0.055
          6.142	  0.030	 -0.055
          6.144	  0.110	 -0.055
          6.146	  0.140	 -0.055
          6.148	  0.190	 -0.055
          6.150	  0.140	 -0.055
          6.152	  0.100	 -0.065
          6.154	  0.070	 -0.070
          6.156	  0.035	 -0.080
          6.158	 -0.065	 -0.085
          6.160	 -0.040	 -0.090
          6.162	  0.015	 -0.090
          6.164	  0.075	 -0.085
          6.166	  0.050	 -0.080
          6.168	  0.190	 -0.075
          6.170	  0.130	 -0.070
          6.172	  0.045	 -0.065
          6.174	  0.020	 -0.065
          6.176	  0.075	 -0.070
          6.178	 -0.030	 -0.070
          6.180	 -0.020	 -0.070
          6.182	  0.015	 -0.070
          6.184	  0.045	 -0.060
          6.186	  0.075	 -0.050
          6.188	  0.195	 -0.040
          6.190	  0.160	 -0.030
          6.192	  0.145	 -0.025
          6.194	  0.110	 -0.025
          6.196	  0.045	 -0.025
          6.198	 -0.005	 -0.035
          6.200	 -0.020	 -0.045
          6.202	  0.030	 -0.055
          6.204	  0.030	 -0.060
          6.206	  0.075	 -0.065
          6.208	  0.155	 -0.060
          6.210	  0.180	 -0.055
          6.212	  0.180	 -0.045
          6.214	  0.145	 -0.035
          6.216	  0.115	 -0.030
          6.218	  0.015	 -0.025
          6.220	 -0.025	 -0.020
          6.222	 -0.005	 -0.025
          6.224	  0.030	 -0.030
          6.226	  0.150	 -0.040
          6.228	  0.210	 -0.045
          6.230	  0.160	 -0.050
          6.232	  0.140	 -0.055
          6.234	  0.030	 -0.055
          6.236	  0.040	 -0.055
          6.238	 -0.005	 -0.050
          6.240	  0.005	 -0.040
          6.242	  0.035	 -0.035
          6.244	  0.100	 -0.030
          6.246	  0.140	 -0.030
          6.248	  0.185	 -0.030
          6.250	  0.230	 -0.030
          6.252	  0.145	 -0.035
          6.254	  0.075	 -0.045
          6.256	  0.050	 -0.050
          6.258	 -0.085	 -0.055
          6.260	 -0.035	 -0.065
          6.262	 -0.015	 -0.065
          6.264	  0.025	 -0.070
          6.266	  0.075	 -0.065
          6.268	  0.165	 -0.060
          6.270	  0.140	 -0.055
          6.272	  0.205	 -0.045
          6.274	  0.110	 -0.030
          6.276	  0.055	 -0.015
          6.278	  0.055	 -0.005
          6.280	 -0.005	  0.005
          6.282	  0.085	  0.010
          6.284	  0.175	  0.010
          6.286	  0.180	  0.005
          6.288	  0.210	 -0.005
          6.290	  0.165	 -0.020
          6.292	  0.070	 -0.035
          6.294	  0.095	 -0.050
          6.296	 -0.035	 -0.060
          6.298	 -0.025	 -0.060
          6.300	  0.030	 -0.060
          6.302	  0.050	 -0.055
          6.304	  0.070	 -0.050
          6.306	  0.145	 -0.045
          6.308	  0.180	 -0.040
          6.310	  0.160	 -0.040
          6.312	  0.080	 -0.050
          6.314	  0.020	 -0.065
          6.316	 -0.080	 -0.080
          6.318	 -0.050	 -0.100
          6.320	 -0.080	 -0.115
          6.322	 -0.010	 -0.125
          6.324	 -0.030	 -0.135
          6.326	  0.095	 -0.135
          6.328	  0.150	 -0.130
          6.330	  0.130	 -0.120
          6.332	  0.015	 -0.110
          6.334	 -0.020	 -0.105
          6.336	 -0.135	 -0.100
          6.338	 -0.050	 -0.095
          6.340	  0.010	 -0.095
          6.342	  0.010	 -0.100
          6.344	  0.035	 -0.100
          6.346	  0.040	 -0.105
          6.348	  0.105	 -0.105
          6.350	  0.090	 -0.105
          6.352	  0.025	 -0.105
          6.354	  0.000	 -0.105
          6.356	 -0.035	 -0.105
          6.358	 -0.080	 -0.105
          6.360	 -0.045	 -0.110
          6.362	  0.010	 -0.110
          6.364	  0.070	 -0.115
          6.366	  0.140	 -0.115
          6.368	  0.080	 -0.115
          6.370	  0.065	 -0.115
          6.372	  0.040	 -0.115
          6.374	 -0.045	 -0.110
          6.376	 -0.140	 -0.105
          6.378	 -0.040	 -0.105
          6.380	 -0.045	 -0.105
          6.382	 -0.045	 -0.105
          6.384	  0.050	 -0.110
          6.386	  0.135	 -0.110
          6.388	  0.180	 -0.115
          6.390	  0.065	 -0.120
          6.392	  0.020	 -0.120
          6.394	 -0.030	 -0.125
          6.396	 -0.055	 -0.125
          6.398	 -0.070	 -0.125
          6.400	 -0.130	 -0.125
          6.402	 -0.035	 -0.130
          6.404	 -0.025	 -0.130
          6.406	  0.150	 -0.135
          6.408	  0.100	 -0.140
          6.410	  0.020	 -0.135
          6.412	 -0.015	 -0.130
          6.414	 -0.040	 -0.110
          6.416	 -0.105	 -0.080
          6.418	  0.005	 -0.040
          6.420	  0.125	  0.010
          6.422	  0.245	  0.080
          6.424	  0.290	  0.160
          6.426	  0.400	  0.245
          6.428	  0.520	  0.340
          6.430	  0.640	  0.435
          6.432	  0.725	  0.530
          6.434	  0.795	  0.615
          6.436	  0.780	  0.680
          6.438	  0.795	  0.720
          6.440	  0.800	  0.735
          6.442	  0.835	  0.715
          6.444	  0.815	  0.660
          6.446	  0.775	  0.575
          6.448	  0.650	  0.465
          6.450	  0.525	  0.345
          6.452	  0.315	  0.215
          6.454	  0.155	  0.095
          6.456	 -0.015	 -0.005
          6.458	 -0.105	 -0.085
          6.460	 -0.115	 -0.135
          6.462	 -0.110	 -0.160
          6.464	 -0.015	 -0.160
          6.466	  0.130	 -0.150
          6.468	  0.070	 -0.125
          6.470	  0.095	 -0.100
          6.472	  0.025	 -0.080
          6.474	  0.050	 -0.065
          6.476	 -0.035	 -0.055
          6.478	 -0.035	 -0.055
          6.480	  0.035	 -0.055
          6.482	  0.070	 -0.055
          6.484	  0.120	 -0.060
          6.486	  0.165	 -0.060
          6.488	  0.130	 -0.065
          6.490	  0.065	 -0.070
          6.492	  0.050	 -0.075
          6.494	  0.030	 -0.085
          6.496	 -0.045	 -0.090
          6.498	 -0.090	 -0.100
          6.500	 -0.075	 -0.100
          6.502	 -0.015	 -0.100
          6.504	  0.080	 -0.095
          6.506	  0.120	 -0.085
          6.508	  0.125	 -0.075
          6.510	  0.130	 -0.065
          6.512	  0.125	 -0.055
          6.514	  0.050	 -0.050
          6.516	 -0.045	 -0.050
          6.518	 -0.050	 -0.060
          6.520	  0.005	 -0.065
          6.522	  0.005	 -0.075
          6.524	  0.095	 -0.080
          6.526	  0.205	 -0.080
          6.528	  0.130	 -0.075
          6.530	  0.085	 -0.070
          6.532	  0.015	 -0.055
          6.534	 -0.010	 -0.045
          6.536	  0.045	 -0.035
          6.538	  0.010	 -0.030
          6.540	  0.020	 -0.030
          6.542	  0.080	 -0.035
          6.544	  0.130	 -0.040
          6.546	  0.170	 -0.045
          6.548	  0.200	 -0.050
          6.550	  0.170	 -0.050
          6.552	  0.070	 -0.045
          6.554	  0.020	 -0.040
          6.556	 -0.040	 -0.025
          6.558	  0.005	 -0.015
          6.560	  0.080	 -0.005
          6.562	  0.150	  0.000
          6.564	  0.175	  0.000
          6.566	  0.240	  0.000
          6.568	  0.270	 -0.005
          6.570	  0.205	 -0.005
          6.572	  0.050	 -0.010
          6.574	 -0.070	 -0.010
          6.576	  0.020	 -0.005
          6.578	  0.055	  0.000
          6.580	  0.055	  0.010
          6.582	  0.190	  0.020
          6.584	  0.245	  0.030
          6.586	  0.255	  0.035
          6.588	  0.235	  0.035
          6.590	  0.190	  0.035
          6.592	  0.150	  0.030
          6.594	  0.070	  0.020
          6.596	 -0.035	  0.010
          6.598	  0.040	  0.000
          6.600	  0.100	  0.000
          6.602	  0.185	  0.000
          6.604	  0.210	  0.010
          6.606	  0.260	  0.020
          6.608	  0.255	  0.040
          6.610	  0.185	  0.060
          6.612	  0.215	  0.075
          6.614	  0.110	  0.095
          6.616	  0.080	  0.105
          6.618	  0.190	  0.115
          6.620	  0.235	  0.120
          6.622	  0.255	  0.120
          6.624	  0.330	  0.125
          6.626	  0.310	  0.130
          6.628	  0.280	  0.140
          6.630	  0.350	  0.150
          6.632	  0.275	  0.160
          6.634	  0.230	  0.175
          6.636	  0.235	  0.185
          6.638	  0.285	  0.195
          6.640	  0.250	  0.200
          6.642	  0.290	  0.200
          6.644	  0.395	  0.200
          6.646	  0.460	  0.200
          6.648	  0.445	  0.205
          6.650	  0.425	  0.215
          6.652	  0.385	  0.225
          6.654	  0.225	  0.245
          6.656	  0.270	  0.260
          6.658	  0.305	  0.275
          6.660	  0.340	  0.290
          6.662	  0.485	  0.295
          6.664	  0.540	  0.295
          6.666	  0.505	  0.290
          6.668	  0.425	  0.285
          6.670	  0.425	  0.275
          6.672	  0.355	  0.265
          6.674	  0.260	  0.255
          6.676	  0.275	  0.250
          6.678	  0.345	  0.245
          6.680	  0.345	  0.245
          6.682	  0.340	  0.240
          6.684	  0.475	  0.230
          6.686	  0.445	  0.220
          6.688	  0.380	  0.210
          6.690	  0.350	  0.195
          6.692	  0.230	  0.180
          6.694	  0.130	  0.165
          6.696	  0.180	  0.155
          6.698	  0.240	  0.140
          6.700	  0.285	  0.130
          6.702	  0.290	  0.115
          6.704	  0.325	  0.095
          6.706	  0.270	  0.075
          6.708	  0.160	  0.055
          6.710	  0.120	  0.035
          6.712	  0.155	  0.015
          6.714	  0.015	  0.000
          6.716	  0.095	 -0.010
          6.718	  0.020	 -0.015
          6.720	  0.110	 -0.020
          6.722	  0.155	 -0.020
          6.724	  0.165	 -0.020
          6.726	  0.200	 -0.020
          6.728	  0.140	 -0.020
          6.730	  0.125	 -0.025
          6.732	  0.110	 -0.030
          6.734	 -0.035	 -0.035
          6.736	 -0.035	 -0.040
          6.738	  0.015	 -0.045
          6.740	  0.035	 -0.050
          6.742	  0.130	 -0.055
          6.744	  0.155	 -0.065
          6.746	  0.180	 -0.075
          6.748	  0.060	 -0.085
          6.750	  0.050	 -0.095
          6.752	 -0.005	 -0.105
          6.754	 -0.165	 -0.115
          6.756	 -0.110	 -0.120
          6.758	 -0.035	 -0.115
          6.760	  0.035	 -0.105
          6.762	  0.085	 -0.095
          6.764	  0.190	 -0.080
          6.766	  0.205	 -0.065
          6.768	  0.105	 -0.055
          6.770	  0.000	 -0.050
          6.772	  0.025	 -0.055
          6.774	 -0.130	 -0.060
          6.776	  0.050	 -0.070
          6.778	 -0.045	 -0.080
          6.780	  0.070	 -0.090
          6.782	  0.075	 -0.100
          6.784	  0.135	 -0.105
          6.786	  0.100	 -0.105
          6.788	  0.045	 -0.100
          6.790	 -0.005	 -0.100
          6.792	  0.020	 -0.095
          6.794	 -0.120	 -0.090
          6.796	 -0.045	 -0.090
          6.798	 -0.015	 -0.085
          6.800	  0.065	 -0.085
          6.802	  0.100	 -0.085
          6.804	  0.145	 -0.085
          6.806	  0.140	 -0.080
          6.808	  0.140	 -0.080
          6.810	  0.050	 -0.080
          6.812	 -0.035	 -0.080
          6.814	 -0.130	 -0.080
          6.816	 -0.135	 -0.080
          6.818	 -0.010	 -0.075
          6.820	  0.045	 -0.075
          6.822	  0.125	 -0.070
          6.824	  0.240	 -0.065
          6.826	  0.210	 -0.060
          6.828	  0.140	 -0.060
          6.830	  0.055	 -0.060
          6.832	 -0.015	 -0.065
          6.834	 -0.105	 -0.070
          6.836	 -0.145	 -0.075
          6.838	 -0.035	 -0.080
          6.840	  0.125	 -0.080
          6.842	  0.120	 -0.075
          6.844	  0.205	 -0.065
          6.846	  0.220	 -0.050
          6.848	  0.220	 -0.035
          6.850	  0.080	 -0.020
          6.852	 -0.030	 -0.010
          6.854	 -0.020	 -0.010
          6.856	 -0.035	 -0.015
          6.858	  0.025	 -0.030
          6.860	  0.100	 -0.045
          6.862	  0.140	 -0.065
          6.864	  0.165	 -0.075
          6.866	  0.105	 -0.080
          6.868	  0.075	 -0.080
          6.870	  0.065	 -0.070
          6.872	  0.060	 -0.050
          6.874	  0.025	 -0.035
          6.876	 -0.025	 -0.025
          6.878	  0.055	 -0.015
          6.880	  0.055	 -0.020
          6.882	  0.225	 -0.030
          6.884	  0.210	 -0.040
          6.886	  0.100	 -0.060
          6.888	  0.050	 -0.070
          6.890	  0.010	 -0.080
          6.892	 -0.025	 -0.080
          6.894	  0.015	 -0.070
          6.896	  0.045	 -0.060
          6.898	  0.050	 -0.050
          6.900	  0.095	 -0.040
          6.902	  0.130	 -0.035
          6.904	  0.155	 -0.035
          6.906	  0.160	 -0.035
          6.908	  0.125	 -0.045
          6.910	  0.100	 -0.050
          6.912	 -0.055	 -0.055
          6.914	  0.005	 -0.065
          6.916	  0.000	 -0.070
          6.918	 -0.005	 -0.070
          6.920	 -0.005	 -0.075
          6.922	  0.075	 -0.080
          6.924	  0.110	 -0.085
          6.926	  0.165	 -0.090
          6.928	  0.070	 -0.095
          6.930	  0.010	 -0.095
          6.932	 -0.030	 -0.090
          6.934	 -0.075	 -0.080
          6.936	 -0.100	 -0.070
          6.938	  0.055	 -0.060
          6.940	  0.135	 -0.050
          6.942	  0.175	 -0.045
          6.944	  0.130	 -0.040
          6.946	  0.100	 -0.040
          6.948	  0.135	 -0.045
          6.950	  0.150	 -0.050
          6.952	 -0.055	 -0.060
          6.954	 -0.045	 -0.065
          6.956	 -0.020	 -0.065
          6.958	  0.065	 -0.065
          6.960	  0.130	 -0.065
          6.962	  0.140	 -0.060
          6.964	  0.170	 -0.060
          6.966	  0.165	 -0.055
          6.968	  0.050	 -0.055
          6.970	  0.015	 -0.050
          6.972	 -0.020	 -0.050
          6.974	 -0.045	 -0.045
          6.976	  0.055	 -0.045
          6.978	  0.050	 -0.050
          6.980	  0.055	 -0.060
          6.982	  0.175	 -0.070
          6.984	  0.095	 -0.080
          6.986	  0.120	 -0.095
          6.988	  0.030	 -0.100
          6.990	 -0.015	 -0.105
          6.992	 -0.015	 -0.105
          6.994	 -0.080	 -0.095
          6.996	 -0.055	 -0.085
          6.998	  0.050	 -0.065
          7.000	  0.130	 -0.050
          7.002	  0.220	 -0.035
          7.004	  0.190	 -0.030
          7.006	  0.150	 -0.035
          7.008	  0.060	 -0.040
          7.010	  0.020	 -0.050
          7.012	 -0.065	 -0.065
          7.014	 -0.085	 -0.075
          7.016	 -0.015	 -0.080
          7.018	  0.075	 -0.080
          7.020	  0.085	 -0.075
          7.022	  0.170	 -0.065
          7.024	  0.210	 -0.050
          7.026	  0.190	 -0.040
          7.028	  0.065	 -0.035
          7.030	  0.095	 -0.035
          7.032	 -0.080	 -0.040
          7.034	 -0.045	 -0.045
          7.036	  0.035	 -0.055
          7.038	  0.075	 -0.065
          7.040	  0.045	 -0.075
          7.042	  0.135	 -0.080
          7.044	  0.135	 -0.085
          7.046	  0.055	 -0.090
          7.048	  0.085	 -0.085
          7.050	  0.065	 -0.085
          7.052	 -0.110	 -0.080
          7.054	 -0.055	 -0.075
          7.056	 -0.015	 -0.065
          7.058	  0.075	 -0.055
          7.060	  0.180	 -0.045
          7.062	  0.275	 -0.030
          7.064	  0.195	 -0.020
          7.066	  0.135	 -0.015
          7.068	  0.075	 -0.010
          7.070	  0.065	 -0.015
          7.072	 -0.015	 -0.015
          7.074	  0.000	 -0.025
          7.076	  0.055	 -0.030
          7.078	  0.035	 -0.035
          7.080	  0.165	 -0.035
          7.082	  0.245	 -0.035
          7.084	  0.200	 -0.030
          7.086	  0.125	 -0.020
          7.088	  0.090	 -0.010
          7.090	  0.085	  0.005
          7.092	  0.040	  0.010
          7.094	 -0.005	  0.020
          7.096	  0.035	  0.020
          7.098	  0.160	  0.020
          7.100	  0.195	  0.020
          7.102	  0.340	  0.015
          7.104	  0.265	  0.010
          7.106	  0.105	  0.010
          7.108	  0.090	  0.005
          7.110	  0.105	  0.005
          7.112	 -0.045	  0.000
          7.114	  0.075	 -0.005
          7.116	  0.115	 -0.015
          7.118	  0.080	 -0.025
          7.120	  0.090	 -0.045
          7.122	  0.130	 -0.065
          7.124	  0.100	 -0.080
          7.126	  0.085	 -0.095
          7.128	  0.030	 -0.105
          7.130	 -0.050	 -0.110
          7.132	 -0.070	 -0.105
          7.134	 -0.065	 -0.100
          7.136	 -0.010	 -0.085
          7.138	  0.125	 -0.075
          7.140	  0.120	 -0.065
          7.142	  0.135	 -0.055
          7.144	  0.185	 -0.055
          7.146	  0.095	 -0.060
          7.148	  0.050	 -0.070
          7.150	  0.025	 -0.080
          7.152	 -0.060	 -0.090
          7.154	 -0.115	 -0.095
          7.156	 -0.040	 -0.100
          7.158	  0.035	 -0.100
          7.160	  0.090	 -0.095
          7.162	  0.165	 -0.095
          7.164	  0.110	 -0.095
          7.166	  0.055	 -0.100
          7.168	 -0.010	 -0.105
          7.170	 -0.040	 -0.105
          7.172	 -0.065	 -0.110
          7.174	 -0.010	 -0.110
          7.176	 -0.090	 -0.105
          7.178	 -0.060	 -0.100
          7.180	  0.105	 -0.095
          7.182	  0.200	 -0.085
          7.184	  0.125	 -0.080
          7.186	  0.075	 -0.075
          7.188	  0.085	 -0.075
          7.190	 -0.050	 -0.080
          7.192	 -0.030	 -0.080
          7.194	 -0.090	 -0.085
          7.196	 -0.010	 -0.085
          7.198	  0.010	 -0.085
          7.200	  0.150	 -0.085
          7.202	  0.145	 -0.085
          7.204	  0.125	 -0.085
          7.206	  0.025	 -0.090
          7.208	  0.020	 -0.100
          7.210	 -0.095	 -0.110
          7.212	 -0.070	 -0.125
          7.214	 -0.115	 -0.140
          7.216	 -0.075	 -0.150
          7.218	  0.000	 -0.155
          7.220	  0.080	 -0.150
          7.222	  0.055	 -0.135
          7.224	  0.070	 -0.110
          7.226	  0.000	 -0.080
          7.228	  0.105	 -0.040
          7.230	  0.110	  0.000
          7.232	  0.110	  0.055
          7.234	  0.115	  0.115
          7.236	  0.290	  0.190
          7.238	  0.400	  0.275
          7.240	  0.605	  0.375
          7.242	  0.675	  0.480
          7.244	  0.790	  0.585
          7.246	  0.910	  0.675
          7.248	  0.955	  0.750
          7.250	  0.905	  0.785
          7.252	  0.875	  0.790
          7.254	  0.740	  0.750
          7.256	  0.750	  0.675
          7.258	  0.650	  0.570
          7.260	  0.655	  0.450
          7.262	  0.490	  0.320
          7.264	  0.370	  0.195
          7.266	  0.220	  0.090
          7.268	  0.095	  0.005
          7.270	 -0.050	 -0.060
          7.272	 -0.085	 -0.100
          7.274	 -0.075	 -0.120
          7.276	 -0.085	 -0.130
          7.278	 -0.035	 -0.130
          7.280	  0.055	 -0.125
          7.282	  0.130	 -0.120
          7.284	  0.190	 -0.110
          7.286	  0.035	 -0.100
          7.288	  0.035	 -0.085
          7.290	 -0.020	 -0.070
          7.292	 -0.015	 -0.055
          7.294	  0.050	 -0.040
          7.296	  0.120	 -0.030
          7.298	  0.055	 -0.025
          7.300	  0.200	 -0.025
          7.302	  0.180	 -0.030
          7.304	  0.100	 -0.040
          7.306	  0.110	 -0.045
          7.308	  0.035	 -0.050
          7.310	 -0.045	 -0.050
          7.312	  0.020	 -0.045
          7.314	  0.060	 -0.040
          7.316	  0.075	 -0.025
          7.318	  0.105	 -0.015
          7.320	  0.210	 -0.005
          7.322	  0.170	 -0.005
          7.324	  0.200	 -0.005
          7.326	  0.100	 -0.010
          7.328	  0.125	 -0.020
          7.330	  0.020	 -0.030
          7.332	 -0.005	 -0.035
          7.334	  0.010	 -0.040
          7.336	  0.020	 -0.045
          7.338	  0.060	 -0.040
          7.340	  0.175	 -0.035
          7.342	  0.210	 -0.030
          7.344	  0.205	 -0.020
          7.346	  0.105	 -0.020
          7.348	  0.115	 -0.015
          7.350	 -0.010	 -0.015
          7.352	 -0.005	 -0.015
          7.354	  0.065	 -0.020
          7.356	  0.145	 -0.020
          7.358	  0.085	 -0.020
          7.360	  0.255	 -0.015
          7.362	  0.195	 -0.010
          7.364	  0.165	 -0.010
          7.366	  0.120	 -0.005
          7.368	  0.070	  0.000
          7.370	 -0.010	  0.000
          7.372	  0.080	  0.000
          7.374	  0.055	  0.000
          7.376	  0.165	 -0.005
          7.378	  0.155	 -0.010
          7.380	  0.190	 -0.010
          7.382	  0.145	 -0.015
          7.384	  0.170	 -0.010
          7.386	  0.120	 -0.010
          7.388	  0.100	  0.000
          7.390	  0.070	  0.015
          7.392	  0.060	  0.030
          7.394	  0.140	  0.045
          7.396	  0.165	  0.060
          7.398	  0.215	  0.070
          7.400	  0.320	  0.080
          7.402	  0.325	  0.085
          7.404	  0.250	  0.080
          7.406	  0.200	  0.075
          7.408	  0.100	  0.065
          7.410	  0.050	  0.060
          7.412	  0.085	  0.055
          7.414	  0.130	  0.055
          7.416	  0.280	  0.065
          7.418	  0.265	  0.075
          7.420	  0.305	  0.095
          7.422	  0.330	  0.115
          7.424	  0.340	  0.135
          7.426	  0.260	  0.150
          7.428	  0.240	  0.160
          7.430	  0.190	  0.160
          7.432	  0.130	  0.155
          7.434	  0.195	  0.145
          7.436	  0.320	  0.135
          7.438	  0.360	  0.125
          7.440	  0.295	  0.120
          7.442	  0.290	  0.120
          7.444	  0.345	  0.135
          7.446	  0.355	  0.150
          7.448	  0.175	  0.175
          7.450	  0.210	  0.200
          7.452	  0.300	  0.225
          7.454	  0.340	  0.245
          7.456	  0.390	  0.265
          7.458	  0.490	  0.275
          7.460	  0.475	  0.280
          7.462	  0.510	  0.285
          7.464	  0.470	  0.285
          7.466	  0.385	  0.285
          7.468	  0.310	  0.290
          7.470	  0.240	  0.290
          7.472	  0.305	  0.295
          7.474	  0.440	  0.295
          7.476	  0.430	  0.300
          7.478	  0.570	  0.300
          7.480	  0.540	  0.300
          7.482	  0.485	  0.295
          7.484	  0.455	  0.295
          7.486	  0.435	  0.290
          7.488	  0.235	  0.285
          7.490	  0.315	  0.280
          7.492	  0.345	  0.275
          7.494	  0.370	  0.270
          7.496	  0.385	  0.260
          7.498	  0.515	  0.250
          7.500	  0.470	  0.240
          7.502	  0.370	  0.225
          7.504	  0.355	  0.215
          7.506	  0.280	  0.200
          7.508	  0.250	  0.185
          7.510	  0.225	  0.175
          7.512	  0.175	  0.160
          7.514	  0.205	  0.150
          7.516	  0.240	  0.145
          7.518	  0.380	  0.135
          7.520	  0.360	  0.125
          7.522	  0.280	  0.115
          7.524	  0.230	  0.100
          7.526	  0.170	  0.090
          7.528	  0.100	  0.075
          7.530	  0.105	  0.060
          7.532	  0.090	  0.045
          7.534	  0.090	  0.030
          7.536	  0.135	  0.015
          7.538	  0.180	  0.000
          7.540	  0.240	 -0.015
          7.542	  0.175	 -0.020
          7.544	  0.105	 -0.030
          7.546	  0.080	 -0.030
          7.548	 -0.010	 -0.030
          7.550	  0.000	 -0.030
          7.552	  0.010	 -0.025
          7.554	  0.090	 -0.025
          7.556	  0.130	 -0.025
          7.558	  0.165	 -0.030
          7.560	  0.170	 -0.040
          7.562	  0.110	 -0.050
          7.564	  0.070	 -0.060
          7.566	  0.045	 -0.075
          7.568	 -0.105	 -0.080
          7.570	  0.010	 -0.085
          7.572	  0.015	 -0.085
          7.574	  0.060	 -0.080
          7.576	  0.105	 -0.070
          7.578	  0.150	 -0.065
          7.580	  0.160	 -0.060
          7.582	  0.110	 -0.055
          7.584	  0.040	 -0.060
          7.586	  0.035	 -0.065
          7.588	 -0.040	 -0.075
          7.590	 -0.035	 -0.080
          7.592	  0.015	 -0.090
          7.594	  0.070	 -0.090
          7.596	 -0.010	 -0.090
          7.598	  0.095	 -0.085
          7.600	  0.180	 -0.080
          7.602	  0.120	 -0.075
          7.604	  0.025	 -0.070
          7.606	  0.050	 -0.070
          7.608	 -0.045	 -0.070
          7.610	 -0.085	 -0.075
          7.612	 -0.055	 -0.080
          7.614	  0.035	 -0.085
          7.616	  0.065	 -0.085
          7.618	  0.170	 -0.085
          7.620	  0.175	 -0.080
          7.622	  0.070	 -0.075
          7.624	  0.070	 -0.065
          7.626	  0.035	 -0.060
          7.628	 -0.085	 -0.055
          7.630	  0.030	 -0.055
          7.632	  0.065	 -0.055
          7.634	  0.075	 -0.055
          7.636	  0.085	 -0.060
          7.638	  0.140	 -0.060
          7.640	  0.125	 -0.065
          7.642	  0.105	 -0.065
          7.644	  0.035	 -0.070
          7.646	  0.080	 -0.070
          7.648	 -0.050	 -0.075
          7.650	 -0.075	 -0.085
          7.652	 -0.040	 -0.090
          7.654	  0.035	 -0.100
          7.656	  0.115	 -0.105
          7.658	  0.175	 -0.105
          7.660	  0.160	 -0.100
          7.662	  0.040	 -0.085
          7.664	 -0.010	 -0.070
          7.666	 -0.005	 -0.050
          7.668	 -0.025	 -0.030
          7.670	  0.080	 -0.020
          7.672	  0.185	 -0.010
          7.674	  0.205	 -0.010
          7.676	  0.125	 -0.020
          7.678	  0.135	 -0.030
          7.680	  0.135	 -0.045
          7.682	  0.125	 -0.055
          7.684	  0.050	 -0.065
          7.686	  0.035	 -0.070
          7.688	 -0.045	 -0.065
          7.690	 -0.045	 -0.065
          7.692	  0.025	 -0.060
          7.694	  0.085	 -0.060
          7.696	  0.145	 -0.060
          7.698	  0.200	 -0.060
          7.700	  0.160	 -0.065
          7.702	  0.135	 -0.070
          7.704	  0.075	 -0.070
          7.706	 -0.025	 -0.065
          7.708	 -0.080	 -0.055
          7.710	 -0.020	 -0.045
          7.712	 -0.005	 -0.035
          7.714	  0.060	 -0.030
          7.716	  0.185	 -0.030
          7.718	  0.235	 -0.035
          7.720	  0.210	 -0.050
          7.722	  0.130	 -0.065
          7.724	  0.005	 -0.075
          7.726	 -0.125	 -0.085
          7.728	 -0.085	 -0.085
          7.730	 -0.050	 -0.070
          7.732	  0.055	 -0.055
          7.734	  0.160	 -0.030
          7.736	  0.205	 -0.010
          7.738	  0.210	  0.000
          7.740	  0.305	  0.000
          7.742	  0.250	 -0.015
          7.744	  0.080	 -0.040
          7.746	 -0.175	 -0.075
          7.748	 -0.215	 -0.105
          7.750	 -0.120	 -0.135
          7.752	 -0.050	 -0.155
          7.754	 -0.035	 -0.160
          7.756	  0.160	 -0.150
          7.758	  0.125	 -0.135
          7.760	  0.060	 -0.115
          7.762	  0.070	 -0.100
          7.764	  0.030	 -0.090
          7.766	 -0.090	 -0.090
          7.768	 -0.070	 -0.095
          7.770	 -0.070	 -0.110
          7.772	 -0.060	 -0.120
          7.774	  0.025	 -0.125
          7.776	  0.120	 -0.125
          7.778	  0.120	 -0.115
          7.780	  0.145	 -0.100
          7.782	  0.070	 -0.080
          7.784	 -0.055	 -0.065
          7.786	  0.025	 -0.055
          7.788	 -0.030	 -0.050
          7.790	 -0.005	 -0.055
          7.792	  0.035	 -0.065
          7.794	  0.040	 -0.080
          7.796	  0.140	 -0.090
          7.798	  0.115	 -0.095
          7.800	  0.065	 -0.090
          7.802	  0.110	 -0.085
          7.804	  0.080	 -0.070
          7.806	 -0.015	 -0.060
          7.808	 -0.060	 -0.055
          7.810	 -0.055	 -0.060
          7.812	 -0.005	 -0.070
          7.814	  0.035	 -0.090
          7.816	  0.075	 -0.110
          7.818	  0.075	 -0.130
          7.820	  0.055	 -0.145
          7.822	  0.005	 -0.145
          7.824	 -0.075	 -0.140
          7.826	 -0.125	 -0.130
          7.828	 -0.020	 -0.120
          7.830	 -0.025	 -0.110
          7.832	 -0.015	 -0.105
          7.834	  0.020	 -0.110
          7.836	  0.085	 -0.120
          7.838	  0.040	 -0.130
          7.840	  0.050	 -0.140
          7.842	  0.020	 -0.145
          7.844	  0.040	 -0.140
          7.846	 -0.055	 -0.125
          7.848	 -0.055	 -0.105
          7.850	 -0.005	 -0.080
          7.852	  0.035	 -0.060
          7.854	  0.100	 -0.050
          7.856	  0.205	 -0.045
          7.858	  0.205	 -0.055
          7.860	  0.090	 -0.075
          7.862	  0.025	 -0.095
          7.864	 -0.030	 -0.115
          7.866	 -0.155	 -0.130
          7.868	 -0.115	 -0.130
          7.870	 -0.030	 -0.125
          7.872	  0.080	 -0.105
          7.874	  0.080	 -0.080
          7.876	  0.215	 -0.055
          7.878	  0.220	 -0.035
          7.880	  0.140	 -0.020
          7.882	  0.075	 -0.010
          7.884	  0.110	 -0.010
          7.886	  0.020	 -0.020
          7.888	 -0.030	 -0.035
          7.890	  0.025	 -0.050
          7.892	  0.070	 -0.065
          7.894	  0.080	 -0.075
          7.896	  0.125	 -0.080
          7.898	  0.135	 -0.085
          7.900	  0.075	 -0.090
          7.902	  0.025	 -0.090
          7.904	  0.060	 -0.095
          7.906	 -0.080	 -0.105
          7.908	 -0.095	 -0.115
          7.910	 -0.090	 -0.125
          7.912	 -0.040	 -0.135
          7.914	  0.035	 -0.140
          7.916	  0.155	 -0.140
          7.918	  0.095	 -0.135
          7.920	  0.035	 -0.125
          7.922	 -0.085	 -0.110
          7.924	  0.020	 -0.095
          7.926	  0.000	 -0.080
          7.928	  0.010	 -0.070
          7.930	  0.005	 -0.065
          7.932	  0.045	 -0.065
          7.934	  0.100	 -0.070
          7.936	  0.150	 -0.080
          7.938	  0.170	 -0.090
          7.940	  0.120	 -0.095
          7.942	  0.005	 -0.100
          7.944	 -0.035	 -0.100
          7.946	 -0.080	 -0.095
          7.948	 -0.130	 -0.090
          7.950	  0.060	 -0.080
          7.952	  0.145	 -0.075
          7.954	  0.085	 -0.070
          7.956	  0.100	 -0.070
          7.958	  0.170	 -0.070
          7.960	  0.085	 -0.080
          7.962	  0.000	 -0.090
          7.964	  0.040	 -0.100
          7.966	 -0.100	 -0.115
          7.968	 -0.135	 -0.125
          7.970	 -0.085	 -0.135
          7.972	 -0.025	 -0.145
          7.974	 -0.005	 -0.145
          7.976	  0.085	 -0.145
          7.978	  0.190	 -0.135
          7.980	  0.075	 -0.120
          7.982	 -0.005	 -0.105
          7.984	 -0.040	 -0.085
          7.986	 -0.045	 -0.065
          7.988	 -0.075	 -0.055
          7.990	  0.070	 -0.045
          7.992	  0.110	 -0.050
          7.994	  0.130	 -0.060
          7.996	  0.150	 -0.080
          7.998	  0.095	 -0.100
          8.000	  0.030	 -0.125
          8.002	 -0.110	 -0.140
          8.004	 -0.105	 -0.145
          8.006	 -0.085	 -0.140
          8.008	 -0.050	 -0.120
          8.010	  0.000	 -0.085
          8.012	  0.125	 -0.035
          8.014	  0.240	  0.020
          8.016	  0.360	  0.090
          8.018	  0.380	  0.170
          8.020	  0.435	  0.250
          8.022	  0.430	  0.340
          8.024	  0.455	  0.435
          8.026	  0.555	  0.530
          8.028	  0.750	  0.625
          8.030	  0.920	  0.705
          8.032	  0.965	  0.770
          8.034	  1.035	  0.810
          8.036	  1.040	  0.815
          8.038	  0.975	  0.775
          8.040	  0.900	  0.700
          8.042	  0.655	  0.590
          8.044	  0.535	  0.455
          8.046	  0.365	  0.305
          8.048	  0.110	  0.160
          8.050	  0.070	  0.035
          8.052	  0.015	 -0.065
          8.054	  0.075	 -0.130
          8.056	  0.105	 -0.155
          8.058	  0.025	 -0.155
          8.060	  0.045	 -0.125
          8.062	  0.010	 -0.090
          8.064	  0.025	 -0.050
          8.066	  0.060	 -0.020
          8.068	  0.170	  0.000
          8.070	  0.100	  0.005
          8.072	  0.050	  0.000
          8.074	  0.120	 -0.015
          8.076	  0.235	 -0.030
          8.078	  0.215	 -0.045
          8.080	  0.085	 -0.055
          8.082	  0.060	 -0.055
          8.084	 -0.035	 -0.050
          8.086	  0.000	 -0.045
          8.088	  0.010	 -0.035
          8.090	  0.085	 -0.030
          8.092	  0.160	 -0.030
          8.094	  0.175	 -0.030
          8.096	  0.205	 -0.040
          8.098	  0.135	 -0.050
          8.100	  0.095	 -0.060
          8.102	  0.030	 -0.065
          8.104	 -0.010	 -0.070
          8.106	 -0.055	 -0.075
          8.108	 -0.030	 -0.070
          8.110	  0.080	 -0.060
          8.112	  0.080	 -0.055
          8.114	  0.200	 -0.045
          8.116	  0.215	 -0.040
          8.118	  0.160	 -0.040
          8.120	  0.130	 -0.040
          8.122	  0.080	 -0.040
          8.124	 -0.040	 -0.040
          8.126	  0.025	 -0.045
          8.128	  0.025	 -0.045
          8.130	  0.010	 -0.040
          8.132	  0.030	 -0.040
          8.134	  0.215	 -0.035
          8.136	  0.200	 -0.035
          8.138	  0.160	 -0.035
          8.140	  0.110	 -0.035
          8.142	  0.085	 -0.040
          8.144	 -0.025	 -0.045
          8.146	 -0.005	 -0.050
          8.148	 -0.010	 -0.055
          8.150	  0.050	 -0.055
          8.152	  0.120	 -0.050
          8.154	  0.245	 -0.040
          8.156	  0.210	 -0.030
          8.158	  0.145	 -0.015
          8.160	  0.100	 -0.005
          8.162	  0.140	  0.005
          8.164	  0.015	  0.010
          8.166	  0.070	  0.015
          8.168	  0.090	  0.020
          8.170	  0.165	  0.020
          8.172	  0.195	  0.020
          8.174	  0.240	  0.025
          8.176	  0.225	  0.025
          8.178	  0.250	  0.025
          8.180	  0.175	  0.030
          8.182	  0.060	  0.030
          8.184	  0.000	  0.030
          8.186	  0.090	  0.030
          8.188	  0.115	  0.030
          8.190	  0.145	  0.030
          8.192	  0.165	  0.035
          8.194	  0.250	  0.040
          8.196	  0.315	  0.050
          8.198	  0.270	  0.060
          8.200	  0.150	  0.065
          8.202	  0.240	  0.075
          8.204	  0.085	  0.075
          8.206	  0.080	  0.075
          8.208	  0.165	  0.075
          8.210	  0.195	  0.075
          8.212	  0.215	  0.075
          8.214	  0.295	  0.080
          8.216	  0.340	  0.095
          8.218	  0.355	  0.115
          8.220	  0.325	  0.135
          8.222	  0.275	  0.165
          8.224	  0.195	  0.185
          8.226	  0.240	  0.200
          8.228	  0.305	  0.210
          8.230	  0.300	  0.205
          8.232	  0.345	  0.195
          8.234	  0.405	  0.185
          8.236	  0.385	  0.175
          8.238	  0.395	  0.170
          8.240	  0.280	  0.170
          8.242	  0.275	  0.185
          8.244	  0.230	  0.205
          8.246	  0.340	  0.230
          8.248	  0.350	  0.255
          8.250	  0.375	  0.275
          8.252	  0.445	  0.290
          8.254	  0.535	  0.290
          8.256	  0.510	  0.285
          8.258	  0.395	  0.275
          8.260	  0.350	  0.260
          8.262	  0.350	  0.250
          8.264	  0.340	  0.245
          8.266	  0.340	  0.240
          8.268	  0.370	  0.240
          8.270	  0.405	  0.245
          8.272	  0.360	  0.245
          8.274	  0.370	  0.245
          8.276	  0.470	  0.240
          8.278	  0.415	  0.230
          8.280	  0.415	  0.220
          8.282	  0.295	  0.210
          8.284	  0.225	  0.200
          8.286	  0.185	  0.195
          8.288	  0.245	  0.190
          8.290	  0.350	  0.185
          8.292	  0.375	  0.180
          8.294	  0.435	  0.175
          8.296	  0.395	  0.165
          8.298	  0.295	  0.150
          8.300	  0.220	  0.135
          8.302	  0.140	  0.115
          8.304	  0.080	  0.100
          8.306	  0.140	  0.085
          8.308	  0.170	  0.070
          8.310	  0.170	  0.055
          8.312	  0.220	  0.045
          8.314	  0.310	  0.035
          8.316	  0.255	  0.020
          8.318	  0.155	  0.010
          8.320	  0.095	 -0.005
          8.322	 -0.030	 -0.020
          8.324	 -0.100	 -0.030
          8.326	  0.045	 -0.035
          8.328	  0.120	 -0.040
          8.330	  0.125	 -0.040
          8.332	  0.195	 -0.035
          8.334	  0.155	 -0.035
          8.336	  0.240	 -0.035
          8.338	  0.110	 -0.035
          8.340	  0.065	 -0.040
          8.342	  0.015	 -0.050
          8.344	 -0.025	 -0.055
          8.346	  0.000	 -0.065
          8.348	 -0.045	 -0.075
          8.350	  0.015	 -0.080
          8.352	  0.160	 -0.080
          8.354	  0.180	 -0.080
          8.356	  0.135	 -0.080
          8.358	  0.025	 -0.075
          8.360	  0.050	 -0.070
          8.362	  0.015	 -0.065
          8.364	 -0.040	 -0.060
          8.366	 -0.070	 -0.060
          8.368	  0.065	 -0.055
          8.370	  0.115	 -0.050
          8.372	  0.155	 -0.050
          8.374	  0.165	 -0.055
          8.376	  0.145	 -0.065
          8.378	  0.065	 -0.075
          8.380	  0.005	 -0.090
          8.382	 -0.080	 -0.105
          8.384	 -0.170	 -0.120
          8.386	 -0.150	 -0.135
          8.388	  0.015	 -0.140
          8.390	  0.035	 -0.145
          8.392	  0.125	 -0.140
          8.394	  0.075	 -0.135
          8.396	  0.005	 -0.125
          8.398	  0.040	 -0.115
          8.400	  0.055	 -0.100
          8.402	 -0.030	 -0.090
          8.404	 -0.030	 -0.085
          8.406	 -0.115	 -0.080
          8.408	  0.025	 -0.080
          8.410	  0.135	 -0.080
          8.412	  0.165	 -0.075
          8.414	  0.135	 -0.080
          8.416	  0.090	 -0.080
          8.418	  0.045	 -0.080
          8.420	  0.050	 -0.080
          8.422	 -0.065	 -0.080
          8.424	 -0.035	 -0.080
          8.426	 -0.015	 -0.080
          8.428	  0.025	 -0.075
          8.430	  0.085	 -0.070
          8.432	  0.155	 -0.060
          8.434	  0.155	 -0.050
          8.436	  0.180	 -0.040
          8.438	  0.180	 -0.030
          8.440	  0.090	 -0.025
          8.442	 -0.045	 -0.025
          8.444	 -0.070	 -0.030
          8.446	  0.035	 -0.040
          8.448	  0.045	 -0.055
          8.450	  0.085	 -0.070
          8.452	  0.100	 -0.080
          8.454	  0.150	 -0.090
          8.456	  0.090	 -0.090
          8.458	  0.080	 -0.090
          8.460	  0.075	 -0.085
          8.462	 -0.065	 -0.080
          8.464	 -0.030	 -0.070
          8.466	 -0.005	 -0.060
          8.468	  0.035	 -0.060
          8.470	  0.095	 -0.055
          8.472	  0.250	 -0.060
          8.474	  0.150	 -0.065
          8.476	  0.090	 -0.070
          8.478	 -0.015	 -0.075
          8.480	  0.015	 -0.075
          8.482	 -0.020	 -0.080
          8.484	 -0.030	 -0.080
          8.486	  0.015	 -0.080
          8.488	  0.080	 -0.080
          8.490	  0.080	 -0.080
          8.492	  0.130	 -0.075
          8.494	  0.160	 -0.070
          8.496	  0.155	 -0.060
          8.498	  0.045	 -0.055
          8.500	  0.050	 -0.045
          8.502	 -0.005	 -0.040
          8.504	  0.005	 -0.035
          8.506	  0.050	 -0.035
          8.508	  0.085	 -0.040
          8.510	  0.105	 -0.050
          8.512	  0.170	 -0.060
          8.514	  0.115	 -0.065
          8.516	  0.155	 -0.075
          8.518	  0.030	 -0.075
          8.520	  0.000	 -0.075
          8.522	 -0.125	 -0.070
          8.524	  0.050	 -0.060
          8.526	  0.080	 -0.050
          8.528	  0.050	 -0.045
          8.530	  0.055	 -0.045
          8.532	  0.165	 -0.045
          8.534	  0.135	 -0.050
          8.536	  0.115	 -0.060
          8.538	  0.070	 -0.065
          8.540	  0.030	 -0.075
          8.542	 -0.070	 -0.075
          8.544	 -0.045	 -0.075
          8.546	  0.050	 -0.075
          8.548	  0.060	 -0.065
          8.550	  0.095	 -0.060
          8.552	  0.160	 -0.060
          8.554	  0.130	 -0.060
          8.556	  0.140	 -0.065
          8.558	  0.010	 -0.075
          8.560	 -0.040	 -0.085
          8.562	 -0.095	 -0.100
          8.564	 -0.060	 -0.105
          8.566	  0.005	 -0.110
          8.568	  0.035	 -0.110
          8.570	  0.090	 -0.105
          8.572	  0.135	 -0.095
          8.574	  0.145	 -0.080
          8.576	  0.080	 -0.065
          8.578	  0.110	 -0.055
          8.580	  0.025	 -0.050
          8.582	 -0.070	 -0.045
          8.584	 -0.095	 -0.045
          8.586	  0.030	 -0.050
          8.588	  0.090	 -0.055
          8.590	  0.110	 -0.060
          8.592	  0.165	 -0.065
          8.594	  0.220	 -0.065
          8.596	  0.150	 -0.065
          8.598	 -0.010	 -0.060
          8.600	 -0.020	 -0.060
          8.602	 -0.020	 -0.060
          8.604	 -0.015	 -0.060
          8.606	  0.025	 -0.060
          8.608	  0.095	 -0.065
          8.610	  0.075	 -0.070
          8.612	  0.150	 -0.070
          8.614	  0.200	 -0.065
          8.616	  0.110	 -0.065
          8.618	  0.065	 -0.055
          8.620	 -0.015	 -0.050
          8.622	 -0.015	 -0.045
          8.624	 -0.050	 -0.035
          8.626	  0.055	 -0.030
          8.628	  0.150	 -0.030
          8.630	  0.165	 -0.025
          8.632	  0.195	 -0.020
          8.634	  0.170	 -0.015
          8.636	  0.080	 -0.010
          8.638	  0.130	  0.000
          8.640	  0.090	  0.010
          8.642	  0.050	  0.020
          8.644	  0.055	  0.025
          8.646	  0.090	  0.020
          8.648	  0.150	  0.015
          8.650	  0.200	  0.000
          8.652	  0.170	 -0.015
          8.654	  0.190	 -0.030
          8.656	  0.100	 -0.045
          8.658	  0.050	 -0.060
          8.660	 -0.015	 -0.065
          8.662	 -0.030	 -0.070
          8.664	  0.000	 -0.065
          8.666	  0.030	 -0.065
          8.668	  0.050	 -0.060
          8.670	  0.085	 -0.055
          8.672	  0.140	 -0.055
          8.674	  0.145	 -0.060
          8.676	  0.115	 -0.060
          8.678	  0.070	 -0.065
          8.680	 -0.060	 -0.070
          8.682	 -0.015	 -0.075
          8.684	 -0.080	 -0.080
          8.686	  0.005	 -0.085
          8.688	  0.015	 -0.090
          8.690	  0.120	 -0.100
          8.692	  0.095	 -0.105
          8.694	  0.070	 -0.115
          8.696	  0.020	 -0.120
          8.698	  0.015	 -0.125
          8.700	 -0.120	 -0.125
          8.702	 -0.090	 -0.120
          8.704	 -0.105	 -0.115
          8.706	 -0.075	 -0.105
          8.708	  0.035	 -0.090
          8.710	  0.225	 -0.075
          8.712	  0.170	 -0.070
          8.714	  0.175	 -0.065
          8.716	  0.090	 -0.070
          8.718	 -0.015	 -0.075
          8.720	 -0.140	 -0.090
          8.722	 -0.130	 -0.100
          8.724	 -0.060	 -0.115
          8.726	  0.000	 -0.125
          8.728	  0.025	 -0.130
          8.730	  0.115	 -0.130
          8.732	  0.105	 -0.120
          8.734	  0.090	 -0.110
          8.736	  0.000	 -0.100
          8.738	  0.005	 -0.090
          8.740	 -0.090	 -0.085
          8.742	 -0.090	 -0.080
          8.744	  0.005	 -0.085
          8.746	  0.065	 -0.090
          8.748	  0.060	 -0.100
          8.750	  0.065	 -0.110
          8.752	  0.090	 -0.120
          8.754	  0.005	 -0.125
          8.756	  0.010	 -0.125
          8.758	 -0.045	 -0.125
          8.760	 -0.120	 -0.120
          8.762	 -0.070	 -0.110
          8.764	 -0.075	 -0.100
          8.766	  0.060	 -0.090
          8.768	  0.025	 -0.075
          8.770	  0.185	 -0.050
          8.772	  0.210	 -0.020
          8.774	  0.240	  0.030
          8.776	  0.205	  0.095
          8.778	  0.250	  0.180
          8.780	  0.300	  0.280
          8.782	  0.430	  0.395
          8.784	  0.595	  0.515
          8.786	  0.815	  0.630
          8.788	  0.910	  0.730
          8.790	  1.075	  0.805
          8.792	  1.120	  0.850
          8.794	  1.115	  0.855
          8.796	  0.925	  0.815
          8.798	  0.800	  0.740
          8.800	  0.645	  0.630
          8.802	  0.550	  0.500
          8.804	  0.420	  0.355
          8.806	  0.245	  0.215
          8.808	  0.160	  0.085
          8.810	  0.135	 -0.020
          8.812	  0.020	 -0.095
          8.814	  0.015	 -0.140
          8.816	  0.040	 -0.155
          8.818	 -0.035	 -0.150
          8.820	 -0.190	 -0.130
          8.822	 -0.085	 -0.105
          8.824	 -0.030	 -0.080
          8.826	  0.065	 -0.060
          8.828	  0.185	 -0.055
          8.830	  0.175	 -0.055
          8.832	  0.145	 -0.065
          8.834	  0.030	 -0.075
          8.836	  0.015	 -0.080
          8.838	 -0.025	 -0.080
          8.840	 -0.080	 -0.075
          8.842	  0.010	 -0.065
          8.844	  0.010	 -0.050
          8.846	  0.100	 -0.040
          8.848	  0.135	 -0.030
          8.850	  0.145	 -0.030
          8.852	  0.175	 -0.035
          8.854	  0.110	 -0.045
          8.856	  0.025	 -0.055
          8.858	 -0.015	 -0.070
          8.860	 -0.050	 -0.080
          8.862	 -0.085	 -0.085
          8.864	  0.030	 -0.085
          8.866	 -0.005	 -0.080
          8.868	  0.085	 -0.075
          8.870	  0.120	 -0.065
          8.872	  0.160	 -0.055
          8.874	  0.110	 -0.045
          8.876	  0.090	 -0.040
          8.878	  0.095	 -0.040
          8.880	 -0.025	 -0.040
          8.882	 -0.080	 -0.040
          8.884	  0.015	 -0.040
          8.886	  0.080	 -0.040
          8.888	  0.155	 -0.035
          8.890	  0.205	 -0.035
          8.892	  0.155	 -0.035
          8.894	  0.085	 -0.035
          8.896	  0.080	 -0.040
          8.898	  0.010	 -0.045
          8.900	 -0.075	 -0.055
          8.902	 -0.050	 -0.060
          8.904	  0.035	 -0.065
          8.906	  0.015	 -0.065
          8.908	  0.110	 -0.060
          8.910	  0.195	 -0.045
          8.912	  0.260	 -0.030
          8.914	  0.160	 -0.010
          8.916	  0.130	  0.005
          8.918	  0.055	  0.020
          8.920	  0.025	  0.025
          8.922	  0.060	  0.030
          8.924	  0.065	  0.020
          8.926	  0.125	  0.010
          8.928	  0.205	  0.000
          8.930	  0.165	 -0.010
          8.932	  0.210	 -0.015
          8.934	  0.120	 -0.015
          8.936	  0.135	 -0.010
          8.938	  0.035	  0.005
          8.940	  0.025	  0.025
          8.942	  0.015	  0.040
          8.944	  0.105	  0.055
          8.946	  0.170	  0.065
          8.948	  0.300	  0.070
          8.950	  0.360	  0.070
          8.952	  0.325	  0.065
          8.954	  0.175	  0.060
          8.956	  0.115	  0.060
          8.958	  0.050	  0.060
          8.960	  0.040	  0.065
          8.962	  0.075	  0.075
          8.964	  0.200	  0.085
          8.966	  0.335	  0.100
          8.968	  0.360	  0.110
          8.970	  0.290	  0.120
          8.972	  0.290	  0.130
          8.974	  0.290	  0.135
          8.976	  0.235	  0.145
          8.978	  0.155	  0.155
          8.980	  0.190	  0.165
          8.982	  0.195	  0.180
          8.984	  0.260	  0.200
          8.986	  0.310	  0.220
          8.988	  0.535	  0.235
          8.990	  0.475	  0.250
          8.992	  0.410	  0.255
          8.994	  0.340	  0.260
          8.996	  0.320	  0.255
          8.998	  0.285	  0.250
          9.000	  0.255	  0.240
          9.002	  0.295	  0.235
          9.004	  0.365	  0.235
          9.006	  0.360	  0.240
          9.008	  0.470	  0.245
          9.010	  0.450	  0.260
          9.012	  0.445	  0.270
          9.014	  0.435	  0.280
          9.016	  0.325	  0.290
          9.018	  0.300	  0.295
          9.020	  0.335	  0.300
          9.022	  0.350	  0.305
          9.024	  0.385	  0.305
          9.026	  0.505	  0.305
          9.028	  0.545	  0.305
          9.030	  0.435	  0.305
          9.032	  0.475	  0.300
          9.034	  0.405	  0.300
          9.036	  0.385	  0.295
          9.038	  0.285	  0.285
          9.040	  0.275	  0.275
          9.042	  0.280	  0.260
          9.044	  0.345	  0.240
          9.046	  0.375	  0.225
          9.048	  0.425	  0.205
          9.050	  0.370	  0.185
          9.052	  0.310	  0.165
          9.054	  0.225	  0.150
          9.056	  0.200	  0.135
          9.058	  0.110	  0.120
          9.060	  0.120	  0.105
          9.062	  0.190	  0.095
          9.064	  0.265	  0.085
          9.066	  0.175	  0.075
          9.068	  0.315	  0.065
          9.070	  0.225	  0.055
          9.072	  0.195	  0.045
          9.074	  0.070	  0.035
          9.076	  0.100	  0.025
          9.078	  0.015	  0.010
          9.080	  0.045	  0.000
          9.082	  0.040	 -0.010
          9.084	  0.110	 -0.020
          9.086	  0.120	 -0.030
          9.088	  0.170	 -0.035
          9.090	  0.130	 -0.040
          9.092	  0.135	 -0.045
          9.094	  0.020	 -0.050
          9.096	  0.015	 -0.055
          9.098	 -0.095	 -0.065
          9.100	 -0.055	 -0.070
          9.102	 -0.020	 -0.075
          9.104	  0.080	 -0.080
          9.106	  0.065	 -0.085
          9.108	  0.120	 -0.090
          9.110	  0.100	 -0.090
          9.112	  0.055	 -0.085
          9.114	 -0.025	 -0.085
          9.116	 -0.020	 -0.090
          9.118	 -0.085	 -0.090
          9.120	 -0.100	 -0.095
          9.122	 -0.045	 -0.100
          9.124	  0.040	 -0.105
          9.126	  0.055	 -0.105
          9.128	  0.115	 -0.105
          9.130	  0.105	 -0.105
          9.132	 -0.010	 -0.095
          9.134	  0.035	 -0.090
          9.136	 -0.080	 -0.085
          9.138	 -0.130	 -0.080
          9.140	 -0.060	 -0.080
          9.142	  0.015	 -0.085
          9.144	  0.050	 -0.095
          9.146	  0.045	 -0.105
          9.148	  0.100	 -0.120
          9.150	  0.060	 -0.130
          9.152	  0.015	 -0.135
          9.154	 -0.045	 -0.140
          9.156	 -0.105	 -0.140
          9.158	 -0.140	 -0.135
          9.160	 -0.150	 -0.130
          9.162	 -0.060	 -0.120
          9.164	  0.020	 -0.110
          9.166	  0.060	 -0.100
          9.168	  0.145	 -0.090
          9.170	  0.150	 -0.075
          9.172	  0.065	 -0.065
          9.174	  0.060	 -0.055
          9.176	  0.025	 -0.050
          9.178	 -0.095	 -0.050
          9.180	 -0.025	 -0.050
          9.182	 -0.015	 -0.055
          9.184	  0.005	 -0.065
          9.186	  0.080	 -0.070
          9.188	  0.180	 -0.075
          9.190	  0.160	 -0.075
          9.192	  0.075	 -0.075
          9.194	 -0.075	 -0.065
          9.196	 -0.030	 -0.055
          9.198	 -0.010	 -0.040
          9.200	 -0.005	 -0.030
          9.202	  0.030	 -0.020
          9.204	  0.090	 -0.020
          9.206	  0.105	 -0.025
          9.208	  0.165	 -0.030
          9.210	  0.120	 -0.045
          9.212	  0.080	 -0.055
          9.214	  0.055	 -0.065
          9.216	 -0.015	 -0.070
          9.218	 -0.045	 -0.070
          9.220	 -0.080	 -0.065
          9.222	 -0.025	 -0.060
          9.224	  0.085	 -0.055
          9.226	  0.135	 -0.050
          9.228	  0.095	 -0.050
          9.230	  0.155	 -0.050
          9.232	  0.105	 -0.060
          9.234	  0.015	 -0.065
          9.236	 -0.105	 -0.075
          9.238	 -0.085	 -0.085
          9.240	 -0.040	 -0.085
          9.242	 -0.060	 -0.085
          9.244	  0.060	 -0.085
          9.246	  0.135	 -0.080
          9.248	  0.155	 -0.075
          9.250	  0.130	 -0.070
          9.252	  0.055	 -0.070
          9.254	 -0.035	 -0.075
          9.256	 -0.090	 -0.085
          9.258	 -0.100	 -0.090
          9.260	 -0.085	 -0.095
          9.262	 -0.045	 -0.100
          9.264	  0.040	 -0.100
          9.266	  0.125	 -0.095
          9.268	  0.160	 -0.090
          9.270	  0.120	 -0.080
          9.272	  0.005	 -0.075
          9.274	  0.070	 -0.070
          9.276	 -0.130	 -0.070
          9.278	 -0.110	 -0.075
          9.280	 -0.055	 -0.080
          9.282	 -0.020	 -0.080
          9.284	  0.045	 -0.085
          9.286	  0.140	 -0.085
          9.288	  0.185	 -0.080
          9.290	  0.100	 -0.075
          9.292	  0.095	 -0.070
          9.294	 -0.035	 -0.070
          9.296	 -0.135	 -0.070
          9.298	 -0.075	 -0.075
          9.300	 -0.090	 -0.080
          9.302	 -0.010	 -0.090
          9.304	 -0.025	 -0.095
          9.306	  0.115	 -0.100
          9.308	  0.125	 -0.095
          9.310	  0.125	 -0.090
          9.312	  0.045	 -0.080
          9.314	  0.025	 -0.075
          9.316	 -0.065	 -0.070
          9.318	 -0.045	 -0.070
          9.320	 -0.135	 -0.080
          9.322	 -0.040	 -0.090
          9.324	 -0.020	 -0.105
          9.326	  0.110	 -0.115
          9.328	  0.130	 -0.120
          9.330	  0.070	 -0.120
          9.332	  0.035	 -0.115
          9.334	 -0.045	 -0.105
          9.336	 -0.150	 -0.090
          9.338	 -0.085	 -0.080
          9.340	 -0.020	 -0.075
          9.342	  0.060	 -0.075
          9.344	  0.045	 -0.080
          9.346	  0.135	 -0.085
          9.348	  0.080	 -0.095
          9.350	  0.135	 -0.105
          9.352	 -0.020	 -0.105
          9.354	 -0.075	 -0.105
          9.356	 -0.165	 -0.105
          9.358	 -0.090	 -0.100
          9.360	 -0.030	 -0.090
          9.362	  0.045	 -0.085
          9.364	  0.035	 -0.080
          9.366	  0.105	 -0.075
          9.368	  0.150	 -0.070
          9.370	  0.110	 -0.065
          9.372	  0.050	 -0.060
          9.374	  0.095	 -0.050
          9.376	 -0.075	 -0.045
          9.378	 -0.055	 -0.035
          9.380	 -0.030	 -0.030
          9.382	  0.005	 -0.025
          9.384	  0.035	 -0.025
          9.386	  0.265	 -0.030
          9.388	  0.200	 -0.030
          9.390	  0.150	 -0.040
          9.392	  0.000	 -0.040
          9.394	 -0.005	 -0.045
          9.396	 -0.020	 -0.045
          9.398	 -0.020	 -0.045
          9.400	 -0.020	 -0.045
          9.402	  0.100	 -0.040
          9.404	  0.085	 -0.040
          9.406	  0.140	 -0.040
          9.408	  0.175	 -0.040
          9.410	  0.140	 -0.040
          9.412	  0.090	 -0.035
          9.414	 -0.015	 -0.025
          9.416	 -0.025	 -0.020
          9.418	 -0.005	 -0.005
          9.420	  0.110	  0.005
          9.422	  0.140	  0.010
          9.424	  0.075	  0.015
          9.426	  0.240	  0.015
          9.428	  0.265	  0.005
          9.430	  0.180	 -0.005
          9.432	  0.020	 -0.020
          9.434	 -0.075	 -0.035
          9.436	 -0.045	 -0.045
          9.438	  0.015	 -0.055
          9.440	 -0.025	 -0.055
          9.442	 -0.010	 -0.055
          9.444	  0.130	 -0.055
          9.446	  0.225	 -0.050
          9.448	  0.145	 -0.050
          9.450	  0.115	 -0.050
          9.452	  0.000	 -0.055
          9.454	 -0.050	 -0.060
          9.456	 -0.015	 -0.060
          9.458	 -0.095	 -0.060
          9.460	  0.040	 -0.055
          9.462	  0.045	 -0.050
          9.464	  0.125	 -0.045
          9.466	  0.185	 -0.040
          9.468	  0.170	 -0.040
          9.470	  0.100	 -0.040
          9.472	  0.040	 -0.050
          9.474	 -0.070	 -0.060
          9.476	 -0.085	 -0.075
          9.478	 -0.060	 -0.090
          9.480	  0.005	 -0.100
          9.482	  0.075	 -0.105
          9.484	  0.100	 -0.110
          9.486	  0.035	 -0.105
          9.488	  0.020	 -0.100
          9.490	  0.040	 -0.090
          9.492	  0.055	 -0.080
          9.494	 -0.030	 -0.075
          9.496	 -0.075	 -0.065
          9.498	 -0.065	 -0.065
          9.500	 -0.005	 -0.060
          9.502	  0.050	 -0.065
          9.504	  0.110	 -0.065
          9.506	  0.115	 -0.070
          9.508	  0.085	 -0.075
          9.510	  0.085	 -0.080
          9.512	 -0.025	 -0.085
          9.514	 -0.055	 -0.090
          9.516	 -0.025	 -0.090
          9.518	 -0.050	 -0.085
          9.520	 -0.060	 -0.075
          9.522	  0.005	 -0.065
          9.524	  0.125	 -0.055
          9.526	  0.200	 -0.050
          9.528	  0.180	 -0.050
          9.530	  0.080	 -0.055
          9.532	 -0.015	 -0.065
          9.534	 -0.100	 -0.085
          9.536	 -0.120	 -0.105
          9.538	 -0.080	 -0.120
          9.540	 -0.085	 -0.130
          9.542	  0.020	 -0.130
          9.544	  0.070	 -0.120
          9.546	  0.070	 -0.100
          9.548	  0.075	 -0.065
          9.550	  0.100	 -0.020
          9.552	  0.155	  0.030
          9.554	  0.160	  0.095
          9.556	  0.205	  0.165
          9.558	  0.240	  0.245
          9.560	  0.465	  0.335
          9.562	  0.530	  0.435
          9.564	  0.760	  0.535
          9.566	  0.825	  0.635
          9.568	  0.970	  0.720
          9.570	  0.970	  0.780
          9.572	  0.960	  0.810
          9.574	  0.835	  0.800
          9.576	  0.820	  0.745
          9.578	  0.700	  0.655
          9.580	  0.590	  0.535
          9.582	  0.445	  0.395
          9.584	  0.460	  0.255
          9.586	  0.265	  0.120
          9.588	  0.150	  0.010
          9.590	 -0.025	 -0.075
          9.592	 -0.055	 -0.125
          9.594	 -0.190	 -0.145
          9.596	 -0.110	 -0.145
          9.598	 -0.065	 -0.130
          9.600	  0.040	 -0.105
          9.602	  0.115	 -0.080
          9.604	  0.165	 -0.055
          9.606	  0.160	 -0.040
          9.608	  0.160	 -0.035
          9.610	  0.070	 -0.030
          9.612	  0.035	 -0.030
          9.614	 -0.055	 -0.035
          9.616	 -0.085	 -0.045
          9.618	 -0.055	 -0.050
          9.620	  0.070	 -0.055
          9.622	  0.085	 -0.060
          9.624	  0.170	 -0.065
          9.626	  0.165	 -0.065
          9.628	  0.130	 -0.065
          9.630	  0.075	 -0.060
          9.632	  0.035	 -0.055
          9.634	 -0.085	 -0.050
          9.636	 -0.045	 -0.045
          9.638	 -0.025	 -0.040
          9.640	  0.070	 -0.035
          9.642	  0.080	 -0.035
          9.644	  0.195	 -0.035
          9.646	  0.260	 -0.035
          9.648	  0.120	 -0.040
          9.650	  0.070	 -0.040
          9.652	  0.095	 -0.035
          9.654	 -0.090	 -0.030
          9.656	 -0.010	 -0.025
          9.658	  0.030	 -0.020
          9.660	  0.060	 -0.015
          9.662	  0.125	 -0.015
          9.664	  0.245	 -0.015
          9.666	  0.240	 -0.015
          9.668	  0.125	 -0.015
          9.670	  0.075	 -0.015
          9.672	  0.080	 -0.010
          9.674	 -0.040	 -0.005
          9.676	  0.015	  0.000
          9.678	  0.090	  0.005
          9.680	  0.160	  0.010
          9.682	  0.170	  0.010
          9.684	  0.200	  0.010
          9.686	  0.180	  0.005
          9.688	  0.160	  0.000
          9.690	  0.040	 -0.010
          9.692	  0.075	 -0.015
          9.694	 -0.005	 -0.015
          9.696	  0.005	 -0.015
          9.698	  0.025	 -0.010
          9.700	  0.145	 -0.005
          9.702	  0.205	  0.005
          9.704	  0.220	  0.010
          9.706	  0.220	  0.015
          9.708	  0.150	  0.020
          9.710	  0.145	  0.025
          9.712	  0.100	  0.025
          9.714	 -0.030	  0.025
          9.716	  0.085	  0.030
          9.718	  0.120	  0.030
          9.720	  0.210	  0.035
          9.722	  0.180	  0.045
          9.724	  0.250	  0.050
          9.726	  0.225	  0.055
          9.728	  0.160	  0.065
          9.730	  0.170	  0.070
          9.732	  0.190	  0.080
          9.734	  0.135	  0.090
          9.736	  0.125	  0.100
          9.738	  0.190	  0.110
          9.740	  0.230	  0.115
          9.742	  0.210	  0.125
          9.744	  0.300	  0.130
          9.746	  0.375	  0.130
          9.748	  0.315	  0.130
          9.750	  0.290	  0.130
          9.752	  0.170	  0.130
          9.754	  0.150	  0.130
          9.756	  0.190	  0.135
          9.758	  0.185	  0.145
          9.760	  0.280	  0.155
          9.762	  0.310	  0.175
          9.764	  0.385	  0.190
          9.766	  0.415	  0.210
          9.768	  0.455	  0.220
          9.770	  0.360	  0.235
          9.772	  0.280	  0.240
          9.774	  0.295	  0.245
          9.776	  0.210	  0.245
          9.778	  0.320	  0.240
          9.780	  0.375	  0.240
          9.782	  0.440	  0.235
          9.784	  0.440	  0.240
          9.786	  0.445	  0.240
          9.788	  0.450	  0.245
          9.790	  0.365	  0.255
          9.792	  0.290	  0.265
          9.794	  0.270	  0.275
          9.796	  0.325	  0.285
          9.798	  0.405	  0.295
          9.800	  0.415	  0.300
          9.802	  0.485	  0.305
          9.804	  0.535	  0.305
          9.806	  0.525	  0.300
          9.808	  0.455	  0.290
          9.810	  0.410	  0.280
          9.812	  0.305	  0.265
          9.814	  0.210	  0.250
          9.816	  0.225	  0.235
          9.818	  0.290	  0.220
          9.820	  0.330	  0.210
          9.822	  0.475	  0.205
          9.824	  0.445	  0.200
          9.826	  0.440	  0.195
          9.828	  0.320	  0.190
          9.830	  0.265	  0.185
          9.832	  0.165	  0.175
          9.834	  0.185	  0.165
          9.836	  0.160	  0.150
          9.838	  0.280	  0.140
          9.840	  0.250	  0.125
          9.842	  0.295	  0.110
          9.844	  0.310	  0.095
          9.846	  0.255	  0.080
          9.848	  0.165	  0.065
          9.850	  0.070	  0.050
          9.852	  0.105	  0.040
          9.854	  0.155	  0.025
          9.856	  0.025	  0.015
          9.858	  0.075	  0.005
          9.860	  0.150	 -0.005
          9.862	  0.210	 -0.010
          9.864	  0.210	 -0.010
          9.866	  0.165	 -0.010
          9.868	  0.115	 -0.015
          9.870	  0.090	 -0.015
          9.872	  0.010	 -0.025
          9.874	  0.000	 -0.040
          9.876	 -0.045	 -0.055
          9.878	  0.030	 -0.075
          9.880	  0.030	 -0.090
          9.882	  0.105	 -0.105
          9.884	  0.095	 -0.120
          9.886	  0.090	 -0.120
          9.888	  0.080	 -0.120
          9.890	  0.020	 -0.120
          9.892	 -0.110	 -0.110
          9.894	 -0.090	 -0.105
          9.896	 -0.075	 -0.100
          9.898	 -0.005	 -0.095
          9.900	  0.070	 -0.090
          9.902	  0.195	 -0.090
          9.904	  0.115	 -0.085
          9.906	  0.120	 -0.080
          9.908	  0.125	 -0.070
          9.910	  0.085	 -0.065
          9.912	 -0.040	 -0.060
          9.914	 -0.075	 -0.060
          9.916	 -0.015	 -0.060
          9.918	  0.125	 -0.065
          9.920	  0.070	 -0.070
          9.922	  0.110	 -0.075
          9.924	  0.105	 -0.080
          9.926	  0.105	 -0.085
          9.928	  0.030	 -0.085
          9.930	  0.020	 -0.080
          9.932	 -0.040	 -0.075
          9.934	 -0.010	 -0.070
          9.936	  0.035	 -0.070
          9.938	  0.080	 -0.065
          9.940	  0.035	 -0.070
          9.942	  0.150	 -0.070
          9.944	  0.130	 -0.075
          9.946	  0.105	 -0.075
          9.948	 -0.025	 -0.075
          9.950	  0.085	 -0.075
          9.952	  0.005	 -0.070
          9.954	 -0.055	 -0.065
          9.956	  0.000	 -0.055
          9.958	  0.120	 -0.055
          9.960	  0.100	 -0.050
          9.962	  0.115	 -0.055
          9.964	  0.240	 -0.055
          9.966	  0.070	 -0.060
          9.968	  0.005	 -0.065
          9.970	  0.005	 -0.070
          9.972	  0.030	 -0.070
          9.974	 -0.015	 -0.065
          9.976	  0.005	 -0.060
          9.978	  0.110	 -0.055
          9.980	  0.105	 -0.050
          9.982	  0.120	 -0.045
          9.984	  0.135	 -0.045
          9.986	  0.185	 -0.045
          9.988	  0.085	 -0.050
          9.990	  0.030	 -0.050
          9.992	 -0.030	 -0.055
          9.994	 -0.055	 -0.060
          9.996	  0.020	 -0.065
          9.998	  0.120	 -0.065
